Oe  K   emu
0.57236	5.01038	0.01155
102.5954	4.99896	0.06518
203.6168	4.99887	0.11754
304.9243	4.99784	0.15086
404.8011	4.99752	0.17207
505.2501	4.99969	0.18717
755.2281	5.00813	0.21192
1006.78	4.99953	0.22712
1258.332	4.99569	0.23739
1510.599	4.99619	0.2448
1760.148	4.99568	0.25045
2011.271	4.99595	0.25495
2263.538	4.99555	0.25865
2514.66	4.9974	0.26169
2765.926	4.99657	0.26428
3015.761	4.99648	0.26644
3267.599	4.99664	0.26835
3519.007	4.99718	0.26994
3769.558	4.99688	0.27136
4021.826	4.99754	0.27256
4271.66	4.99701	0.2736
4522.783	4.99727	0.27452
4773.762	4.99791	0.27528
5025.6	4.99578	0.27597
7533.964	5.01135	0.28019
10042.33	5.00566	0.28249
12551.55	5.00324	0.28404
15061.06	5.00344	0.28533
17570	5.00185	0.28637
20079.08	5.00178	0.28732
22587.44	5.00059	0.28817
25097.96	5.00005	0.28896
27604.16	5.00211	0.28966
30113.26	5.00115	0.2904
32624.47	5.00055	0.29105
35134.98	5.00071	0.29169
37644.78	5.00161	0.29229
40155.3	5.00077	0.29285
42665.09	5.0015	0.29338
45174.88	5.00341	0.2939
47687.54	5.00331	0.29442
50198.76	5.00188	0.29491
52708.55	5.00075	0.29536
55219.79	5.00075	0.2958
57729.57	5.00207	0.29624
60239.38	5.00194	0.29662
62750.61	5.00254	0.29704
65261.84	5.00161	0.29743
67773.05	5.00089	0.29784
70284.28	5.00148	0.29822
1.00163	10.00058	0.00937
102.4523	9.99805	0.06126
203.6168	9.99028	0.11591
304.4951	9.99359	0.14872
404.6579	9.99652	0.16988
505.3931	9.99709	0.18545
754.7988	10.00393	0.21072
1006.78	9.99437	0.2263
1258.332	9.99377	0.23675
1509.454	9.9969	0.24431
1759.146	9.99769	0.25007
2010.841	9.99866	0.25463
2262.822	9.99652	0.25834
2514.088	10.00004	0.26143
2766.069	9.99652	0.26402
3015.475	9.99749	0.26623
3266.74	9.99769	0.2681
3518.865	9.99576	0.26974
3769.272	9.99826	0.27112
4021.396	9.99829	0.27234
4271.517	9.98969	0.27337
4522.353	9.99652	0.27425
4773.619	9.99612	0.27503
5024.885	9.99807	0.27572
7534.394	10.00315	0.27988
10041.18	10.00023	0.28209
12551.84	10.00003	0.28362
15060.21	9.99902	0.28481
17570	10.0022	0.28581
20079.79	10.00452	0.28668
22587.44	10.00257	0.28749
25097.96	9.99964	0.28821
27604.16	9.99767	0.28887
30113.96	9.99807	0.28954
32624.47	10.00062	0.29013
35134.28	10.00003	0.29071
37644.78	9.99729	0.29127
40154.57	9.99865	0.29179
42666.52	10.00021	0.29231
45174.88	9.99904	0.29281
47687.54	10.00001	0.29329
50198.76	9.99923	0.29373
52708.55	9.99982	0.29417
55218.35	9.99864	0.2946
57729.57	9.99806	0.29501
60239.38	10.00587	0.29539
62750.61	10.00272	0.29578
65263.26	10.00176	0.2961
67771.63	9.99883	0.29653
70284.28	10.00195	0.29695
0.85854	15.005	0.00903
102.5954	14.99929	0.0618
203.3306	14.99977	0.11549
304.0658	14.99906	0.14853
404.5149	15.00001	0.16969
505.3932	14.99858	0.18525
755.085	15.00334	0.2105
1007.066	14.99977	0.22617
1258.189	14.99715	0.23665
1509.74	14.99763	0.24422
1759.861	14.99739	0.24996
2010.841	14.99763	0.25449
2262.823	14.99811	0.25822
2514.374	14.9993	0.2613
2765.353	14.99858	0.26386
3016.333	15.00001	0.26605
3267.313	15.00525	0.26792
3519.293	15.00191	0.26953
3770.416	15.00191	0.2709
4021.539	15.00001	0.27209
4271.517	14.99905	0.27309
4522.354	14.9993	0.27397
4773.19	14.99811	0.27473
5024.741	14.99953	0.27541
7533.965	15.00286	0.2795
10041.47	15.00025	0.28167
12551.84	14.99953	0.28315
15059.92	15.00001	0.2843
17570	15.00025	0.28529
20079.08	14.99763	0.28613
22586.72	15.00072	0.28688
25097.96	15.00764	0.28757
27604.16	15.00358	0.28823
30113.26	15.00382	0.28885
32624.47	15.00097	0.28943
35134.28	15.00001	0.28998
37644.07	14.99953	0.29048
40154.57	15.00167	0.29098
42666.52	14.99977	0.29148
45176.31	15.00072	0.29195
47688.97	14.99572	0.29237
50197.33	14.99668	0.29282
52708.55	14.9993	0.29324
55219.79	14.99929	0.29364
57731.02	14.99882	0.29403
60239.38	14.99977	0.29442
62750.61	15.00001	0.29478
65263.26	14.9993	0.29516
67771.63	15.00359	0.29553
70284.28	15.00358	0.29588
0.85854	19.99961	0.0088
102.4523	19.99472	0.06137
203.6168	20.00657	0.11532
304.9243	20.00616	0.14832
404.8011	20.00903	0.16966
505.5363	20.01434	0.18499
754.9419	20.00412	0.21046
1006.923	20.00043	0.2261
1258.618	20.00126	0.23658
1510.027	20.00044	0.24411
1759.576	20.00085	0.24986
2010.555	20.00452	0.25443
2263.108	19.99799	0.2581
2514.088	19.99881	0.26117
2765.783	20.00126	0.26372
3015.332	20.00126	0.26588
3267.456	19.9943	0.26772
3519.293	20.00043	0.26932
3769.988	19.99676	0.27067
4021.397	19.99757	0.27182
4271.375	20.00002	0.27282
4522.21	20.00044	0.27368
4773.905	19.99839	0.27442
5025.313	19.99799	0.27509
7534.251	20.00452	0.27909
10041.47	19.99962	0.28124
12550.98	19.99921	0.28269
15060.2	19.99063	0.28381
17570	19.99553	0.28476
20079.08	20.00453	0.28557
22587.44	20.00698	0.28633
25097.23	20.00821	0.28701
27604.89	20.01107	0.28764
30113.96	20.00657	0.28824
32623.76	20.00084	0.28879
35134.28	19.99921	0.2893
37645.5	20.00085	0.2898
40154.57	20.00044	0.29031
42666.52	20.00166	0.29076
45176.31	20.00044	0.2912
47686.11	20.00044	0.29162
50197.33	20.00126	0.29204
52708.55	19.9935	0.29244
55219.79	20.00044	0.29285
57731.02	19.9984	0.29322
60239.38	19.99881	0.29361
62752.04	19.99881	0.29397
65261.84	19.99962	0.29432
67773.05	20.00003	0.29469
70284.28	19.99962	0.29505
0.85854	25.00092	0.00831
102.8815	24.99725	0.06168
203.3306	24.99664	0.11518
304.0658	24.99847	0.14816
404.8011	24.99908	0.16954
504.8209	24.99786	0.18491
754.7988	25.00031	0.21037
1007.209	25.00153	0.22608
1258.475	25.00031	0.23655
1510.027	24.9948	0.24412
1759.861	24.9893	0.24983
2010.841	24.99725	0.25432
2263.108	24.99603	0.25802
2514.088	25.00581	0.26104
2766.212	25.00887	0.26358
3015.474	25.00887	0.26571
3267.17	25.01009	0.26751
3518.436	25.00764	0.26904
3769.272	25.00703	0.27035
4021.683	25.00581	0.2715
4271.946	25.00031	0.27244
4523.069	25.00703	0.27331
4774.478	25.00581	0.27405
5025.028	24.99908	0.27469
7533.822	24.99542	0.27862
10041.18	25.00153	0.28071
12552.12	24.99847	0.28216
15060.21	24.99725	0.2833
17570	24.99908	0.28422
20077.64	24.99969	0.285
22586.72	24.99969	0.28576
25096.52	24.99969	0.28643
27603.45	25.00153	0.28704
30112.54	24.99297	0.28761
32623.76	24.99603	0.28812
35134.27	25.0107	0.28865
37644.78	25.00948	0.28917
40154.58	25.01192	0.28961
42665.09	25.00641	0.29005
45174.88	25.00214	0.2905
47687.54	24.99969	0.2909
50198.76	24.99908	0.2913
52707.13	24.99908	0.29167
55219.79	25.00336	0.29206
57731.02	25.00031	0.29241
60239.38	25.00336	0.29276
62750.61	25.00031	0.29311
65263.26	24.99847	0.29345
67771.63	24.99908	0.29379
70284.28	25.00153	0.29414
0.85854	30.00456	0.00806
102.4523	30.00371	0.06126
203.4737	30.00456	0.11556
304.209	30.00201	0.1482
404.8011	29.99946	0.16955
505.107	29.99946	0.18504
754.7988	29.99861	0.21041
1006.923	29.99776	0.22611
1258.331	29.99776	0.23654
1509.74	29.99776	0.24408
1759.861	30.00201	0.24976
2010.698	29.99776	0.25426
2262.679	29.99691	0.25788
2514.232	29.99776	0.26087
2765.353	29.99946	0.26333
3015.618	29.99776	0.26543
3267.599	29.99776	0.2672
3518.149	30.00031	0.26869
3769.558	29.99946	0.26997
4021.539	29.99946	0.27107
4271.517	29.99947	0.272
4522.496	30.00201	0.27281
4774.478	30.00371	0.27353
5024.884	30.00116	0.27416
7533.822	30.00201	0.27798
10041.18	30.00031	0.28005
12551.55	30.00116	0.28148
15060.78	30.00286	0.28256
17569.29	30.00031	0.28349
20079.08	30.00116	0.28429
22586.72	29.99862	0.28499
25096.52	30.00286	0.28565
27604.17	29.99776	0.28625
30113.25	29.99946	0.28681
32623.76	29.99861	0.28734
35134.27	30.00116	0.28783
37644.07	30.00116	0.28832
40154.58	29.99692	0.28877
42666.52	29.99861	0.2892
45174.88	29.99607	0.28961
47687.54	29.99861	0.29002
50198.76	29.99692	0.29039
52708.55	29.99522	0.29076
55219.79	29.99691	0.29111
57729.57	29.99862	0.29145
60240.82	30.00371	0.29179
62752.04	30.00116	0.29211
65263.26	30.00201	0.29243
67773.05	30.00031	0.29279
70284.28	30.00116	0.2931
1.28781	34.99772	0.0079
102.4523	35.00308	0.06172
203.1875	35.0004	0.1154
304.0658	35.0013	0.1484
404.5149	35.00264	0.16975
504.9639	35.00175	0.18514
754.6556	35.00219	0.21055
1007.352	35.00085	0.2262
1258.045	34.99995	0.23661
1510.027	34.99906	0.24409
1759.718	35.00175	0.24971
2010.984	34.99951	0.25414
2262.965	35.0004	0.25771
2514.374	35.00085	0.26065
2765.783	35.00264	0.26307
3015.76	34.99593	0.26508
3267.17	34.99906	0.26679
3518.436	34.99862	0.26822
3769.844	35.0022	0.26947
4021.539	34.99728	0.2705
4270.945	34.99862	0.27139
4522.782	34.99906	0.2722
4774.047	34.99996	0.27287
5025.457	34.99951	0.27349
7533.679	35.0004	0.2772
10041.47	34.99995	0.27922
12551.55	34.99996	0.28064
15060.21	35.00041	0.28171
17569.29	35.00264	0.28262
20078.37	35.00219	0.28342
22586.72	35.00443	0.28411
25097.24	35.00443	0.28476
27604.17	35.00353	0.28534
30112.54	35.00175	0.28587
32623.76	34.99951	0.28639
35134.27	34.99906	0.28688
37644.07	34.99862	0.28733
40153.86	35.0013	0.28776
42666.52	35.00265	0.28818
45176.31	35.00443	0.28857
47687.54	34.99593	0.28895
50198.76	34.99817	0.28935
52707.13	34.99861	0.2897
55218.35	35.00175	0.29004
57731.02	35.00175	0.29038
60239.38	35.0013	0.2907
62750.61	34.99772	0.29105
65263.26	34.99995	0.29137
67773.05	34.99638	0.29171
70284.28	34.99593	0.29201
0.85854	40.00135	0.00697
102.5954	39.99908	0.06171
203.1875	39.99965	0.11608
304.209	39.99793	0.14881
404.6579	39.99793	0.17016
504.9639	39.99567	0.18551
754.9419	40.00761	0.21086
1007.495	40.00363	0.22642
1258.332	40.00306	0.23672
1509.597	40.00078	0.24409
1759.861	40.00021	0.24966
2010.555	39.99793	0.25399
2262.965	40.00362	0.25752
2514.231	40.00192	0.26034
2766.499	39.9985	0.26272
3015.475	39.99965	0.26463
3267.885	39.99737	0.26629
3518.865	40.00249	0.26768
3769.988	40.00021	0.26883
4021.396	40.00078	0.26984
4271.946	39.9985	0.27068
4522.925	39.99851	0.27143
4774.335	39.99339	0.27211
5025.457	39.99907	0.27268
7533.822	39.99794	0.27627
10042.05	40.00078	0.27826
12551.84	39.99965	0.27965
15060.49	39.99567	0.28072
17569.29	40.00135	0.28161
20079.08	39.99737	0.2824
22586.72	39.99907	0.28308
25097.24	39.9968	0.28372
27604.17	39.99908	0.28429
30113.25	40.00363	0.28482
32623.04	40.00192	0.28531
35134.27	40.00477	0.28577
37644.07	40.00477	0.28622
40154.58	40.00021	0.28665
42665.09	40.00362	0.28702
45176.31	40.00078	0.28743
47686.11	40.00249	0.28778
50198.76	39.99794	0.28815
52708.55	40.00021	0.28851
55219.79	40.00192	0.28882
57731.02	39.99452	0.28917
60239.38	39.99567	0.28948
62752.04	39.99965	0.28981
65263.26	40.00021	0.29012
67771.63	39.99737	0.29043
70284.28	39.99282	0.29074
1.14472	44.99907	0.00656
102.3092	45.00189	0.06121
203.4737	45.00118	0.11621
303.9227	45.0033	0.14942
404.5149	44.99837	0.17061
505.107	44.99907	0.18606
754.7988	45.00118	0.21129
1006.923	44.99767	0.22665
1258.045	44.99977	0.23688
1509.884	44.99767	0.24416
1759.718	44.99837	0.24959
2010.412	45.00259	0.25384
2263.394	44.99978	0.25726
2513.802	44.99837	0.26002
2765.64	44.99485	0.26227
3015.76	44.99274	0.26413
3267.456	44.99696	0.26567
3518.436	44.99696	0.26697
3769.844	45.0033	0.26807
4021.683	45.00119	0.26901
4271.231	45.00541	0.26983
4522.496	45.0033	0.27052
4773.761	45.004	0.27115
5024.741	45.00541	0.2717
7533.964	44.99908	0.27518
10042.05	45.00259	0.27714
12551.84	44.99977	0.2785
15060.21	44.99977	0.27957
17570	44.99696	0.28044
20079.08	45.00119	0.28124
22586.72	45.00118	0.28189
25097.23	45.00048	0.28251
27604.16	44.99485	0.28306
30113.26	44.99696	0.2836
32624.47	44.99485	0.28409
35134.98	45.00118	0.28455
37644.78	44.99555	0.28498
40154.57	44.99767	0.2854
42666.52	44.99837	0.28579
45174.88	44.99908	0.28619
47686.11	45.00119	0.28647
50197.33	44.99978	0.28681
52707.13	44.99978	0.28706
55218.35	45.0047	0.28642
57731.02	45.0033	0.28695
60239.38	45.00189	0.28695
62750.61	45.00118	0.28761
65263.26	45.00118	0.28758
67771.63	45.00048	0.28771
70284.28	45.0033	0.28771
1.00163	50.00187	0.0056
102.023	50.00613	0.06135
203.9029	50.00443	0.11738
304.209	50.00443	0.15035
404.6579	50.00016	0.17163
505.107	50.00102	0.18695
754.5126	49.99591	0.21185
1006.923	49.99847	0.22701
1258.331	49.99931	0.23703
1509.74	49.99421	0.24417
1759.718	49.99335	0.24948
2010.412	50.00187	0.25362
2263.68	50.00101	0.25692
2514.374	50.00954	0.25954
2765.926	49.99931	0.26169
3015.474	49.99931	0.26346
3267.742	49.99761	0.26493
3519.008	49.99506	0.26615
3769.988	50.00016	0.2672
4021.539	49.99931	0.26807
4271.66	49.99421	0.26884
4522.496	50.00442	0.2695
4773.905	50.00443	0.27009
5025.171	49.9959	0.27063
7533.822	49.99761	0.27397
10041.47	50.00272	0.2759
12551.55	50.00443	0.27724
15060.78	50.00101	0.27828
17569.29	50.00443	0.27915
20079.08	50.00357	0.27991
22586.72	49.99931	0.28056
25096.52	49.99761	0.28118
27603.45	49.99931	0.28172
30113.25	49.99761	0.28224
32623.04	50.00357	0.28272
35134.27	50.00016	0.28318
37644.78	50.00016	0.28359
40153.86	49.99847	0.284
42666.52	50.00101	0.28441
45176.31	49.99165	0.28474
47687.54	49.99676	0.28509
50197.33	50.00187	0.2854
52708.55	49.99931	0.28564
55218.35	50.00272	0.28565
57731.02	49.99846	0.28598
60239.38	49.99761	0.2859
62750.61	49.99335	0.28569
65261.84	49.99761	0.28651
67773.05	49.99931	0.28691
70285.72	50.00272	0.28591
0.85854	54.99773	0.00481
102.4523	54.99875	0.06139
203.1875	55.00482	0.11791
304.209	54.99976	0.15138
404.8011	55.00583	0.1726
505.5363	54.99673	0.18785
755.085	55.00279	0.21252
1007.066	55.00482	0.22743
1258.046	55.00381	0.23722
1510.456	54.99875	0.24418
1760.004	55.00076	0.24931
2010.841	55.00381	0.25331
2262.822	55.00785	0.25645
2514.803	54.99773	0.25896
2766.069	55.0028	0.261
3015.761	55.0028	0.26265
3267.313	54.99673	0.26403
3519.007	55.00381	0.26518
3769.701	54.99773	0.26615
4021.253	55.00279	0.26698
4271.23	55.00178	0.2677
4522.639	55.00077	0.26833
4774.048	54.99774	0.2689
5025.457	54.99874	0.26941
7533.822	54.99875	0.27268
10041.76	54.99875	0.27455
12551.55	54.99572	0.27586
15060.49	55.00481	0.27692
17570.71	54.99571	0.27779
20079.79	54.99572	0.27854
22586.72	55.00077	0.27916
25097.96	54.99976	0.27975
27604.89	55.00785	0.28029
30113.96	55.00482	0.2808
32625.19	54.99166	0.28127
35134.28	55.00684	0.2817
37644.07	55.00178	0.2821
40155.3	55.00684	0.28252
42666.52	55.00279	0.2829
45176.31	54.99874	0.28327
47687.54	55.00482	0.28359
50197.33	55.00178	0.28393
52708.55	55.0028	0.28426
55219.79	55.0028	0.2846
57731.02	54.99673	0.28491
60239.38	54.99672	0.2852
62750.61	54.99571	0.28557
65263.26	54.99369	0.28581
67773.05	54.98965	0.28609
70285.72	54.99976	0.28639
0.71545	60.00005	0.00382
102.1661	60.00124	0.06121
203.6168	59.99411	0.11915
303.9227	60.00123	0.15253
404.8011	60.00005	0.17372
505.2501	59.99412	0.18886
755.085	60.00005	0.21314
1007.066	60.00005	0.22783
1258.332	60.0048	0.23739
1509.597	59.99649	0.24411
1759.861	60.00005	0.24909
2010.841	60.0036	0.25288
2263.681	59.99767	0.25591
2514.517	60.00005	0.25826
2766.069	60.0036	0.26016
3015.617	60.00479	0.2617
3267.026	59.99649	0.26299
3518.721	60.00005	0.26406
3769.844	60.0048	0.26498
4022.541	60.00242	0.26577
4272.089	60.00598	0.26644
4522.925	59.99767	0.26705
4774.048	59.99767	0.2676
5025.457	60.00716	0.26806
7534.108	60.00242	0.27122
10041.47	60.00242	0.27304
12551.84	60.00597	0.27438
15059.92	59.99887	0.27541
17570	60.0036	0.27626
20079.79	60.00004	0.27699
22586.72	60.00005	0.27762
25097.23	59.99649	0.27821
27604.16	59.99886	0.27873
30113.96	59.99531	0.27923
32623.76	59.9953	0.27969
35134.98	60.00123	0.28014
37644.78	59.99887	0.28055
40154.57	60.00005	0.28091
42666.52	59.99649	0.28133
45174.88	59.99649	0.28167
47686.11	60.00242	0.282
50198.76	60.00835	0.28234
52708.55	60.00005	0.28266
55219.79	60.01071	0.28297
57729.57	60.00124	0.28325
60240.82	60.0036	0.28353
62752.04	60.00124	0.28383
65263.26	60.0036	0.2841
67773.05	59.99411	0.28439
70284.28	59.99649	0.28466
0.85854	65.00098	0.00313
103.1677	65.00372	0.06213
203.6168	64.99823	0.12038
303.9227	65.0051	0.15396
404.8011	65.00372	0.17503
505.3931	65.00784	0.18999
754.7987	65.00098	0.21388
1007.639	65.00235	0.22819
1258.618	64.99686	0.23747
1510.313	65.01058	0.24397
1760.004	65.00646	0.24872
2010.555	64.9996	0.25236
2263.108	64.99823	0.25515
2514.946	65.00235	0.25739
2765.926	64.99001	0.25918
3015.761	64.9996	0.26063
3267.742	65.0092	0.26183
3518.579	65.00509	0.26282
3769.701	65.00098	0.26367
4021.682	65.00098	0.26444
4272.233	64.99823	0.26508
4523.498	65.00098	0.26565
4773.762	65.00373	0.26616
5025.314	65.00372	0.26662
7533.679	64.99823	0.2697
10042.05	64.99961	0.27152
12552.12	65.00235	0.27282
15059.63	64.9996	0.27378
17570	65.00098	0.27464
20079.08	65.00098	0.27535
22587.44	65.00647	0.27595
25097.96	65.00508	0.27656
27604.16	65.0051	0.27705
30113.96	64.99823	0.27757
32624.47	64.99548	0.27799
35134.98	64.99823	0.27843
37644.78	65.00647	0.27885
40155.3	65.00235	0.27923
42665.09	64.99549	0.27959
45174.88	65.00645	0.27995
47687.54	65.01058	0.28032
50198.76	64.99823	0.28063
52708.55	64.99548	0.28094
55219.79	64.9996	0.28125
57729.57	64.99001	0.28154
60239.38	64.9996	0.28185
62750.61	65.00098	0.28213
65261.84	64.99686	0.2824
67771.63	64.9996	0.28269
70284.28	64.99686	0.28296
0.71545	70.00218	0.00234
102.023	70.01003	0.06174
203.1875	69.99432	0.12132
304.209	69.99747	0.15539
404.5149	69.99747	0.17635
504.9639	69.99434	0.19112
755.2281	70.00218	0.21462
1007.209	69.99433	0.22847
1258.045	70.00688	0.23741
1509.598	70.00688	0.24365
1759.718	69.99904	0.24819
2010.841	70.01317	0.25164
2262.679	69.99747	0.25428
2514.374	70.00218	0.25638
2765.783	70.00688	0.25804
3015.76	70.00218	0.25938
3267.17	69.99904	0.26049
3519.437	69.99747	0.26146
3770.13	69.99904	0.26223
4021.253	69.99432	0.26295
4271.517	69.98491	0.26357
4522.64	69.99434	0.26413
4773.19	69.9959	0.2646
5025.6	69.99275	0.26505
7533.964	69.99747	0.26805
10041.76	69.9959	0.26984
12551.84	69.99904	0.27113
15060.77	69.99904	0.2721
17570	69.99904	0.27291
20079.08	69.98491	0.27362
22587.44	70.00374	0.27426
25097.23	70.0006	0.27481
27604.89	69.99747	0.27534
30113.96	70.00531	0.27581
32623.76	70.00688	0.27624
35134.98	70.01474	0.27668
37644.78	69.9959	0.27708
40154.57	70.01003	0.27745
42665.09	69.99904	0.27784
45174.88	70.01317	0.27818
47687.54	70.00374	0.2785
50198.76	69.9912	0.27883
52708.55	69.9912	0.27916
55219.79	70.00532	0.27946
57731.02	70.00688	0.27975
60239.38	70.00374	0.28003
62752.04	69.99747	0.28033
65261.84	69.98962	0.28062
67773.05	70.00532	0.28088
70284.28	70.0006	0.28119
0.85854	75.0014	0.00136
102.1661	74.99606	0.06225
203.7598	75.0014	0.12287
304.209	75.00317	0.15665
404.2287	75.00318	0.17763
505.107	75.0014	0.19222
755.085	74.99251	0.21521
1007.352	74.99251	0.22862
1257.759	74.99606	0.23725
1510.027	75.0014	0.24323
1759.146	75.00496	0.24752
2010.841	74.99251	0.25076
2262.679	74.99606	0.25325
2513.802	75.00496	0.25518
2765.211	74.99606	0.25673
3015.76	75.0103	0.25801
3267.742	74.99785	0.25907
3519.293	75.00496	0.25996
3769.844	75.0192	0.26073
4021.969	75.01564	0.26139
4271.517	75.00674	0.26198
4522.926	75.00317	0.2625
4774.047	75.00496	0.26296
5024.598	75.00317	0.26338
7533.964	75.00317	0.26632
10041.47	74.99606	0.26808
12551.84	75.01385	0.2693
15060.21	74.98184	0.27031
17568.56	74.99073	0.27111
20079.08	75.00673	0.27183
22586.72	74.99785	0.27245
25095.8	74.99606	0.27298
27603.45	75.0014	0.27348
30112.54	75.00318	0.27397
32623.04	74.98717	0.27442
35134.27	75.00319	0.27484
37644.07	74.99429	0.27526
40154.58	75.0014	0.27563
42666.52	75.0014	0.27599
45176.31	74.99606	0.27632
47686.11	75.0014	0.27666
50198.76	75.00674	0.27698
52708.55	75.00674	0.2773
55219.79	75.00852	0.27759
57731.02	75.01208	0.2779
60240.82	75.00496	0.27817
62752.04	75.00496	0.27842
65261.84	74.99963	0.2787
67773.05	74.99962	0.27899
70284.28	75.00496	0.27929
1.14472	79.99776	7.0035E-4
102.1661	80.00774	0.06205
203.6168	80.00974	0.12424
303.9227	80.00774	0.15818
404.5149	80.00774	0.17899
504.8209	80.00175	0.1932
755.2281	79.99975	0.21571
1006.923	79.99976	0.22868
1257.759	80.00375	0.23693
1509.74	80.00374	0.24263
1759.576	80.00974	0.24668
2010.412	79.99976	0.24971
2262.965	79.99776	0.25204
2514.088	80.01575	0.25387
2766.355	80.00974	0.25533
3015.474	79.99376	0.25651
3267.027	79.99776	0.25752
3518.721	79.99576	0.25835
3769.988	79.99176	0.25908
4021.826	80.00574	0.25972
4270.945	79.98578	0.26029
4522.067	80.00575	0.26078
4773.619	79.99776	0.26126
5024.456	79.99376	0.26167
7533.679	79.99576	0.26451
10041.76	79.99376	0.26626
12551.84	79.99577	0.26748
15060.78	80.00375	0.26847
17569.29	79.99776	0.26924
20078.37	80.00175	0.26992
22586.72	79.99576	0.27054
25097.24	80.00375	0.27111
27603.45	80.00574	0.27161
30113.25	80.00774	0.27209
32623.04	79.99976	0.27251
35134.27	80.00175	0.27294
37644.07	80.00175	0.27332
40153.86	80.00574	0.27372
42665.09	80.00375	0.27407
45174.88	80.00175	0.27444
47687.54	79.99576	0.27476
50197.33	80.00375	0.27508
52708.55	79.99576	0.2754
55218.35	79.99376	0.27569
57731.02	80.00374	0.27599
60240.82	79.99576	0.27628
62752.04	79.99576	0.27659
65263.26	79.99976	0.27685
67773.05	79.99376	0.2771
70284.28	79.99177	0.27737
0.71545	84.99612	-2.14298E-4
102.1661	85.00502	0.06204
202.9013	85.00502	0.12511
303.7796	84.99612	0.15957
404.6579	85.01393	0.18015
504.9639	84.99835	0.19414
755.3712	84.99612	0.21597
1007.066	85.00502	0.22852
1258.332	85.0028	0.23642
1510.313	85.00058	0.24181
1759.861	85.00503	0.24563
2010.841	84.9939	0.24849
2262.965	85.00726	0.25068
2514.231	85.00504	0.25238
2765.783	85.00058	0.25375
3015.761	84.99612	0.25489
3267.313	85.01837	0.25583
3518.865	85.0117	0.25663
3769.558	85.00281	0.25732
4021.396	84.99612	0.25794
4271.66	85.00056	0.2585
4522.497	84.99612	0.25899
4774.048	85.0028	0.25944
5024.885	84.99835	0.25983
7534.538	84.9939	0.26264
10041.76	84.985	0.26436
12551.84	85.00504	0.26557
15060.78	84.98946	0.26654
17570	84.99167	0.26735
20079.08	85.0117	0.26801
22586.72	84.99612	0.2686
25096.52	84.99612	0.26914
27604.16	85.00504	0.26963
30113.96	85.00281	0.27013
32625.19	84.9939	0.27056
35134.28	85.00949	0.27096
37644.07	85.00058	0.27135
40154.57	85.00726	0.27173
42666.52	85.00726	0.27211
45176.31	85.00056	0.27247
47686.11	85.0117	0.27277
50197.33	85.00058	0.2731
52708.55	85.00948	0.2734
55219.79	85.01839	0.27372
57731.02	85.00058	0.274
60240.82	85.00726	0.27429
62752.04	85.00726	0.2746
65261.84	84.99612	0.27487
67771.63	85.00281	0.27516
70284.28	84.98723	0.27545
1.00163	89.99742	-7.36579E-4
102.7385	89.99989	0.06262
203.1875	89.9925	0.12629
304.352	89.99989	0.16105
404.8011	89.9925	0.1812
505.3932	89.99742	0.19501
754.9419	89.98757	0.21611
1007.066	89.98264	0.22817
1257.759	90.00484	0.23569
1509.454	89.99991	0.24081
1759.718	89.97771	0.24442
2010.698	89.99496	0.24712
2262.823	89.99496	0.24918
2514.232	89.99742	0.25079
2766.355	90.01469	0.25209
3015.76	90.00237	0.25314
3268.028	89.99496	0.25407
3518.864	89.99989	0.25484
3769.558	90.01469	0.25552
4021.397	90.00483	0.25611
4271.803	90.01222	0.25665
4522.926	89.99989	0.25713
4774.047	90.00483	0.25756
5025.171	90.00237	0.25796
7534.108	90.00237	0.2607
10041.18	90.00237	0.26238
12552.12	90.00484	0.26362
15060.21	89.9925	0.26453
17570	90.0073	0.26535
20079.79	90.00729	0.26603
22588.16	89.99496	0.26663
25097.96	89.9925	0.26715
27603.45	90.00484	0.26766
30113.96	90.00237	0.26814
32624.47	89.99744	0.26857
35134.98	89.99989	0.26897
37644.78	90.00976	0.26937
40154.57	89.99989	0.26972
42666.52	89.99496	0.2701
45174.88	89.99742	0.27044
47687.54	89.99496	0.27077
50198.76	90.01223	0.2711
52708.55	89.99991	0.27141
55219.79	89.99003	0.27171
57731.02	90.00237	0.272
60240.82	89.98511	0.27228
62750.61	90.00237	0.27256
65261.84	89.99742	0.27286
67773.05	90.00976	0.27316
70284.28	90.00484	0.27344
0.85854	94.99782	-0.0017
102.5954	94.9951	0.06286
203.1875	95.00053	0.12782
303.7796	95.00189	0.16227
404.3717	95.00325	0.18199
505.3932	95.00598	0.19559
755.2281	95.00325	0.21607
1007.066	95.00325	0.22757
1258.618	95.00462	0.23478
1509.74	94.99918	0.23964
1759.861	95.00325	0.24306
2010.841	94.99782	0.2456
2262.965	95.00189	0.24755
2514.232	95.00325	0.24908
2765.783	94.99918	0.25032
3015.904	94.99918	0.25135
3267.742	94.99782	0.25221
3519.008	94.99102	0.25297
3770.13	94.99918	0.25362
4021.539	94.99646	0.25421
4271.517	94.99918	0.25472
4522.926	94.99782	0.25517
4774.335	95.00189	0.25563
5025.313	94.99782	0.25601
7534.251	94.99782	0.2587
10041.47	95.0019	0.26037
12552.12	95.0019	0.26157
15060.78	95.00053	0.26251
17570	95.00325	0.26327
20079.79	95.00325	0.26396
22587.44	95.00053	0.26455
25097.23	94.99919	0.2651
27604.89	95.00734	0.2656
30113.96	95.00598	0.26605
32623.76	95.00053	0.26648
35134.28	94.99918	0.2669
37644.78	95.00462	0.26729
40155.3	95.00325	0.26769
42666.52	95.0019	0.26804
45176.31	94.99646	0.26841
47686.11	94.99646	0.26873
50198.76	94.9951	0.26908
52708.55	95.00325	0.26939
55219.79	94.99374	0.26968
57731.02	94.99373	0.27
60239.38	94.9951	0.2703
62752.04	94.9951	0.27056
65261.84	95.00189	0.27085
67773.05	94.99918	0.27109
70284.28	95.00053	0.27141
0.85854	99.99025	-0.00241
102.4523	99.99623	0.06309
203.4737	100.0007	0.12886
303.7796	99.99922	0.16304
404.3717	99.99324	0.18265
505.2501	99.99623	0.19582
754.9419	100.0007	0.2157
1006.494	100.0007	0.22677
1258.188	100.0037	0.23365
1510.027	100.0112	0.23827
1760.148	100.0022	0.24152
2010.841	100.0022	0.24394
2262.393	100.0037	0.2458
2514.374	99.99324	0.24727
2765.639	100.0022	0.24846
3015.331	100.0007	0.24942
3267.599	99.99923	0.25028
3519.294	100.0097	0.25101
3770.273	99.99473	0.25164
4021.396	99.99473	0.2522
4271.66	99.99324	0.25271
4522.639	99.99622	0.25317
4773.476	99.99773	0.25359
5024.599	99.99324	0.25396
7533.964	99.99474	0.25663
10042.05	100.0007	0.25828
12551.55	99.99922	0.25948
15060.78	100.0112	0.26041
17570.71	99.99774	0.26119
20079.08	100.0022	0.26186
22586.72	100.0037	0.26245
25097.96	99.99174	0.26301
27604.89	99.99922	0.26349
30113.96	99.99473	0.26394
32625.19	100.0022	0.26439
35135.7	100.0052	0.26479
37644.07	99.99175	0.26518
40154.57	100.0112	0.26555
42666.52	99.99623	0.26592
45176.31	100.0022	0.26627
47687.54	100.0007	0.26659
50198.76	100.0112	0.26696
52708.55	100.0022	0.26723
55219.79	100.0022	0.26751
57731.02	99.99324	0.26787
60239.38	99.99623	0.26816
62752.04	99.99772	0.26847
65263.26	100.0052	0.26877
67773.05	99.99324	0.26905
70285.72	99.99922	0.26933
0.71545	105.0002	-0.00328
102.5954	105.0035	0.06302
203.4737	105.0035	0.12969
303.7796	105.0084	0.16381
404.8011	105.015	0.18307
504.8208	104.9937	0.19594
755.085	104.9953	0.21521
1006.923	104.9872	0.22579
1258.189	104.9953	0.23236
1510.456	105.0018	0.23679
1759.861	104.9937	0.23988
2010.984	105.0018	0.24218
2262.537	105.0067	0.24396
2514.232	105.0018	0.24537
2765.926	104.9839	0.24652
3015.474	104.9986	0.24747
3267.313	104.9937	0.2483
3519.008	104.9969	0.24898
3769.844	104.9937	0.24962
4021.969	105.0035	0.25018
4271.517	105.0084	0.25066
4522.496	105.0133	0.25112
4774.335	104.9969	0.25153
5025.028	105.0166	0.25192
7533.679	105.0035	0.25452
10041.76	105.0034	0.25615
12551.55	104.9921	0.25734
15060.77	104.9872	0.25827
17570	104.9904	0.25904
20079.79	105.0035	0.25972
22587.44	104.9969	0.26031
25097.96	105.0051	0.26086
27604.89	104.9986	0.26137
30113.96	104.9969	0.26181
32623.76	105.0067	0.26225
35134.98	104.9888	0.26267
37644.78	104.9986	0.26306
40155.3	104.9953	0.26344
42665.09	104.9921	0.26379
45176.31	104.9953	0.26414
47687.54	104.9986	0.26448
50197.33	105.0052	0.26481
52708.55	104.9986	0.26513
55219.79	105.0035	0.26543
57729.57	104.9937	0.26575
60240.82	104.997	0.26603
62750.61	105.0035	0.26631
65261.84	105.0083	0.26661
67773.05	104.9969	0.26691
70284.28	105.0002	0.26718
0.71545	109.985	-0.00375
102.1661	110.0064	0.06268
203.4737	109.9939	0.13054
303.7796	110.0063	0.16443
404.5149	110.0064	0.18332
504.8209	110.0099	0.19586
754.7988	110.0029	0.21444
1006.923	109.9886	0.22467
1258.189	109.9904	0.23095
1509.598	110.0117	0.23515
1759.861	110.0028	0.23812
2010.412	109.9921	0.24033
2262.965	110.0028	0.24205
2514.232	110.0099	0.24341
2766.212	110.0135	0.24452
3015.332	110.0046	0.24546
3267.313	110.0011	0.24625
3518.292	109.9939	0.24693
3769.988	109.9975	0.24756
4021.397	109.9975	0.2481
4271.66	110.0011	0.24859
4522.496	110.0046	0.24902
4773.905	110.0028	0.24943
5025.457	110.0152	0.24981
7533.822	109.9975	0.2524
10042.04	109.9993	0.254
12551.84	110.0099	0.25518
15060.49	109.9957	0.25611
17570	110.0046	0.25688
20079.08	110.0117	0.25753
22587.44	109.9886	0.25815
25097.96	110.0028	0.25868
27604.89	109.9975	0.25917
30113.96	109.9975	0.25964
32623.76	110.0063	0.26006
35134.28	110.0045	0.26047
37645.5	110.001	0.26088
40154.57	109.9975	0.26125
42667.95	109.9939	0.26165
45176.31	109.9939	0.26198
47688.97	110.0064	0.26235
50200.2	109.9957	0.26266
52709.99	109.9957	0.263
55219.78	109.9921	0.2633
57732.45	109.9993	0.26363
60240.81	110.0064	0.26391
62752.04	109.9993	0.2642
65264.69	109.9903	0.26449
67774.48	109.9975	0.26478
70285.72	110.0135	0.26507
0.71545	114.9908	-0.00439
102.7384	114.9966	0.06347
203.1875	115.0062	0.1308
303.6366	114.9985	0.16483
404.3718	115.0081	0.18343
505.2501	115.0023	0.19561
754.7988	115.0023	0.21351
1007.066	115.0119	0.22336
1258.618	115.0043	0.22939
1509.884	115.0023	0.23343
1759.861	114.9966	0.23629
2011.128	115.0081	0.23842
2262.823	114.9908	0.24008
2514.374	114.9985	0.2414
2766.212	114.9889	0.24248
3016.476	114.9947	0.24339
3267.027	114.9908	0.24416
3519.151	114.985	0.24483
3769.129	115.0042	0.24542
4021.969	115.0004	0.24598
4271.231	114.9888	0.24645
4522.64	114.987	0.24689
4773.905	114.985	0.24728
5025.743	114.9927	0.24766
7533.964	114.9946	0.25023
10041.47	115.0119	0.25184
12551.84	115.0043	0.25299
15060.49	115.0101	0.25393
17569.29	115.0023	0.25469
20078.37	114.9927	0.25536
22586.72	114.9812	0.25597
25097.24	115.012	0.2565
27603.45	115.0023	0.25698
30113.96	115.0062	0.25747
32624.48	115.0139	0.25786
35134.27	115.012	0.25829
37644.78	114.9985	0.2587
40154.58	115.0101	0.25909
42666.52	115.012	0.25943
45174.88	115.0139	0.25979
47686.11	115.0062	0.26012
50197.33	115.0159	0.26045
52708.55	115.0042	0.26079
55219.79	114.9888	0.26111
57729.57	115.0197	0.26142
60240.82	115.0023	0.26173
62752.04	114.987	0.26204
65261.84	115.0042	0.26233
67773.05	114.9985	0.26264
70284.28	114.9947	0.26296
0.85854	119.9971	-0.00504
102.4523	120.0074	0.0629
203.6168	120.0116	0.13161
304.352	119.9866	0.16515
404.6579	119.9991	0.18323
505.3932	119.997	0.1951
754.7988	119.9971	0.21241
1007.066	120.0012	0.2219
1258.189	120.0074	0.22772
1509.74	120.0033	0.23162
1759.718	119.997	0.23439
2010.412	120.0096	0.23644
2262.965	119.997	0.23806
2514.232	119.997	0.23934
2765.497	120.0012	0.24039
3016.19	119.9846	0.24128
3267.17	119.9908	0.24205
3518.578	119.9949	0.24271
3769.844	119.9887	0.24331
4021.683	119.9991	0.24382
4271.517	120.0054	0.2443
4522.354	120.0033	0.24471
4773.333	120.0033	0.24511
5024.741	119.9908	0.24546
7533.679	120.0158	0.24802
10041.47	120.0033	0.2496
12551.26	120.0053	0.25077
15060.49	120.0137	0.25167
17570	119.9949	0.25245
20079.08	119.9908	0.25312
22586.72	120.0054	0.25373
25097.24	119.9887	0.25427
27602.74	119.997	0.25477
30113.96	119.995	0.25524
32624.48	119.9845	0.25567
35133.56	120.0054	0.25607
37644.07	120.0012	0.25649
40154.58	119.9908	0.25687
42666.52	119.9908	0.25726
45174.88	119.9971	0.25759
47687.54	119.9887	0.25795
50198.76	119.9949	0.25827
52708.55	120.0012	0.25859
55219.79	119.9929	0.25891
57729.57	119.9949	0.25923
60240.82	120.0158	0.25954
62752.04	120.0116	0.25986
65261.84	120.0012	0.26016
67773.05	120.0054	0.26045
70284.28	119.9991	0.26074
1.00163	124.9906	-0.00529
102.4523	125.0086	0.06331
203.1875	124.9974	0.13173
304.209	124.9974	0.16519
404.8011	124.9974	0.18287
505.107	125.0108	0.19433
754.7988	124.9996	0.21118
1006.351	124.9974	0.22032
1258.045	125.0041	0.22594
1509.884	124.9951	0.22972
1759.861	125.0018	0.23238
2010.555	124.9906	0.23438
2262.823	125.0018	0.23595
2514.374	124.9974	0.23721
2765.926	124.9996	0.23824
3016.047	124.9996	0.23912
3266.741	125.0041	0.23986
3518.864	124.9884	0.24051
3769.558	125.0086	0.2411
4021.397	124.9974	0.24162
4271.803	124.9862	0.24208
4522.21	124.9906	0.24249
4773.761	124.9951	0.24289
5024.456	124.9951	0.24324
7534.251	124.9951	0.24577
10042.05	124.9884	0.24736
12552.12	125.0063	0.24849
15060.49	125.0086	0.2494
17570	124.9929	0.25016
20078.36	125.0153	0.25083
22587.44	125.0041	0.25145
25097.23	124.9996	0.252
27604.89	124.9996	0.25246
30113.26	124.9974	0.25294
32624.47	125.0108	0.25338
35134.98	124.9996	0.25382
37644.78	125.0108	0.25422
40154.57	125.013	0.2546
42666.52	124.9974	0.25497
45174.88	124.9951	0.25533
47687.54	124.9951	0.25569
50198.76	124.9929	0.25602
52708.55	125.0018	0.25638
55219.79	124.9996	0.25671
57731.02	124.9996	0.25702
60239.38	124.9951	0.25734
62750.61	124.9996	0.25764
65263.26	124.9906	0.25795
67773.05	124.9929	0.25825
70284.28	124.9996	0.25854
1.28781	129.9918	-0.00572
102.7385	130.0038	0.06402
203.7599	129.9942	0.13233
304.352	129.999	0.16501
404.9441	129.9894	0.18229
505.5363	130.0038	0.19353
755.085	130.0062	0.20985
1006.923	129.999	0.21866
1258.045	130.0087	0.22408
1510.027	130.0038	0.22775
1759.861	130.0063	0.23034
2010.412	129.9918	0.23228
2263.538	130.0038	0.23382
2514.232	130.0038	0.23504
2765.497	129.9966	0.23605
3015.904	129.9966	0.2369
3267.456	129.9918	0.23764
3519.58	129.9966	0.23829
3769.844	129.9991	0.23885
4021.539	129.9991	0.23938
4271.375	129.9966	0.23981
4522.64	129.9966	0.24023
4773.905	130.011	0.24063
5025.028	129.9918	0.24096
7534.108	130.0038	0.24348
10042.05	130.0038	0.24504
12551.27	130.0063	0.2462
15060.49	129.9942	0.2471
17570	129.9966	0.24788
20079.79	129.9918	0.24856
22587.44	129.999	0.24917
25096.52	129.9966	0.24969
27604.16	129.9942	0.25018
30113.96	130.0014	0.25066
32625.19	129.9966	0.25111
35134.98	130.0038	0.25152
37644.78	130.0038	0.25193
40154.57	130.0087	0.25232
42666.52	130.0038	0.25269
45176.31	130.0038	0.25307
47687.54	129.9942	0.25341
50198.76	129.999	0.25375
52708.55	129.9991	0.2541
55219.79	129.9942	0.25442
57731.02	130.0014	0.25473
60239.38	129.9966	0.25507
62752.04	129.999	0.25539
65263.26	130.0038	0.25572
67773.05	130.0087	0.25604
70284.28	130.0038	0.25633
1.28781	135.0038	-0.0063
102.7385	134.9909	0.06403
203.3306	134.9987	0.13203
304.352	134.9986	0.1646
404.3717	134.9986	0.18146
505.3931	135.0063	0.19252
754.9419	134.9935	0.20832
1007.066	135.0012	0.21689
1257.903	135.0038	0.22216
1509.454	134.9909	0.22572
1759.289	134.9909	0.22824
2010.698	135.0012	0.23014
2262.965	135.0012	0.23164
2513.945	135.0063	0.23282
2765.211	134.9909	0.23382
3015.76	134.9909	0.23465
3267.599	135.0089	0.23539
3518.292	135.0089	0.23601
3769.558	134.9909	0.23657
4021.397	134.9987	0.23707
4271.375	135.0063	0.23753
4523.355	135.0115	0.23793
4774.047	135.0064	0.23832
5025.457	135.0064	0.23867
7534.394	134.9986	0.24114
10041.76	134.9909	0.2427
12551.27	135.0089	0.24382
15059.92	135.0012	0.24475
17570.71	135.0012	0.24552
20079.08	134.9935	0.24619
22586.72	134.9961	0.24679
25097.23	134.9961	0.24734
27604.16	134.9909	0.24785
30114.68	134.9961	0.24833
32623.76	135.0012	0.24879
35134.28	135.0012	0.24921
37644.78	135.0038	0.24963
40155.3	134.9909	0.25003
42665.09	135.0038	0.25042
45174.88	134.9909	0.25077
47687.54	134.9909	0.25114
50198.76	135.0038	0.25148
52708.55	135.0012	0.25183
55219.79	135.0038	0.25214
57731.02	135.0038	0.25248
60240.82	135.0038	0.25281
62750.61	134.9935	0.25309
65261.84	135.0089	0.25343
67773.05	135.0012	0.25374
70284.28	135.0089	0.25405
1.00163	139.9834	-0.00602
102.1661	139.9999	0.06381
203.3306	139.9889	0.13256
303.9228	139.9999	0.16416
404.6579	140.0054	0.18074
505.107	139.9971	0.19141
754.6557	139.9999	0.20675
1006.78	139.9999	0.21509
1258.474	139.9999	0.2202
1509.311	139.9999	0.22364
1759.003	140.0054	0.22609
2011.127	140.0027	0.22795
2262.393	140.0027	0.2294
2514.374	140.0027	0.23059
2765.783	140.0027	0.23156
3015.617	139.9999	0.23237
3267.17	140.0027	0.23309
3518.578	139.9999	0.23372
3769.844	139.9944	0.23426
4020.824	139.9999	0.23475
4271.231	139.9944	0.2352
4523.212	139.9944	0.23561
4773.904	139.9944	0.23598
5025.028	139.9944	0.23632
7534.251	139.9916	0.23878
10041.76	139.9971	0.24035
12552.12	140.0081	0.24148
15060.21	139.9861	0.24237
17570	139.9917	0.24316
20079.79	140.0081	0.24381
22587.44	140.0054	0.24443
25097.96	139.9972	0.245
27604.89	140.0081	0.24549
30113.96	140.0054	0.24596
32625.19	139.9999	0.24642
35134.98	139.9944	0.24686
37644.07	139.9944	0.24727
40155.3	140.0081	0.24767
42665.09	139.9944	0.24806
45174.88	139.9972	0.24844
47686.11	140.0054	0.24881
50198.76	140.0027	0.24915
52708.55	139.9999	0.2495
55219.79	139.9944	0.24984
57729.57	140.0027	0.25018
60239.38	140.0027	0.25051
62752.04	139.9916	0.25085
65263.26	140.0054	0.2512
67773.05	139.9944	0.25149
70284.28	139.9999	0.25181
1.00163	144.993	-0.00656
102.5954	144.9987	0.06451
202.9013	144.993	0.13204
304.0658	144.9958	0.16348
404.0856	145.0046	0.17959
505.107	144.993	0.19006
755.085	145.0017	0.20504
1006.351	145.0017	0.21314
1258.189	144.9987	0.21814
1509.74	144.9958	0.22151
1759.576	145.0017	0.22388
2010.555	144.993	0.22569
2262.823	145.0046	0.22711
2513.802	144.99	0.22824
2765.497	144.9958	0.2292
3015.618	144.9929	0.23001
3267.456	144.9988	0.23072
3519.437	145.0017	0.23135
3769.988	145.0017	0.23187
4021.539	145.0075	0.23236
4271.803	145.0075	0.2328
4522.64	144.9958	0.23321
4773.333	145.0017	0.23355
5024.456	145.0105	0.2339
7534.251	145.0017	0.23634
10042.05	145.0017	0.23789
12551.55	145.0017	0.23903
15059.92	144.993	0.23993
17569.29	144.9958	0.24071
20078.37	144.9871	0.24142
22587.45	144.993	0.24201
25096.52	144.9929	0.24256
27603.45	144.99	0.24308
30113.96	145.0017	0.24356
32624.48	144.9958	0.24403
35133.56	144.993	0.24445
37644.07	144.9987	0.2449
40153.86	144.9987	0.24528
42666.52	145.0017	0.24567
45174.88	145.0017	0.24605
47687.54	145.0075	0.24642
50198.76	145.0047	0.24677
52708.55	144.9987	0.24714
55219.79	145.0075	0.24749
57731.02	145.0017	0.24782
60239.38	145.0135	0.24813
62752.04	145.0046	0.24847
65261.84	144.9958	0.2488
67771.63	145.0017	0.24912
70284.28	144.993	0.24947
0.71545	149.982	-0.00718
102.7385	150.0006	0.06482
203.6168	149.9975	0.13226
304.209	150.0069	0.16258
404.3717	150.01	0.17854
505.3932	149.9976	0.1888
755.085	149.9975	0.20337
1007.066	149.9976	0.21119
1257.903	150.0006	0.21603
1509.884	150.01	0.2193
1759.718	150.0006	0.22163
2010.984	150.0006	0.2234
2262.537	149.9944	0.22476
2514.374	150.0038	0.2259
2766.069	149.9913	0.22684
3015.904	149.9976	0.22762
3267.313	149.9976	0.22832
3519.293	149.9975	0.22892
3769.988	150.0038	0.22946
4021.253	149.9944	0.22994
4271.66	150.0069	0.23037
4522.067	149.9882	0.23076
4773.761	149.9851	0.23115
5025.171	149.9944	0.23148
7533.822	149.9976	0.23387
10041.76	149.9976	0.23542
12552.12	150.0069	0.23654
15060.49	150.0069	0.23747
17570	150.0038	0.23824
20079.79	150.0069	0.23891
22587.44	150.0038	0.23954
25097.23	150.0069	0.24008
27604.16	149.9975	0.24063
30113.96	150.0038	0.24112
32623.76	150.0006	0.24158
35134.98	150.0006	0.24204
37644.78	150.0006	0.24246
40155.3	150.0038	0.24288
42666.52	150.0038	0.24328
45174.88	150.0006	0.24368
47687.54	149.9944	0.24406
50197.33	149.9913	0.24442
52708.55	150.01	0.24479
55219.79	150.0006	0.24515
57729.57	149.9975	0.2455
60240.82	150.0038	0.24583
62752.04	149.9944	0.24616
65263.26	149.9913	0.24648
67773.05	149.9975	0.24682
70284.28	150.0038	0.24713
0.85854	154.9963	-0.00754
102.4523	154.9964	0.06493
203.4737	155.003	0.13161
303.7796	154.9964	0.16172
404.6579	154.9997	0.17742
505.107	154.9964	0.18729
754.6556	154.993	0.20151
1006.351	154.993	0.20916
1258.618	155.0063	0.21387
1510.17	155.0063	0.21705
1760.433	155.0029	0.21932
2010.984	155.0063	0.22104
2263.108	155.0129	0.22239
2514.66	154.9964	0.22349
2765.926	154.9963	0.22441
3016.19	155.003	0.22518
3267.456	154.993	0.22584
3518.864	155.0063	0.22644
3769.988	155.003	0.22697
4022.254	154.9996	0.22744
4271.087	154.9996	0.22787
4522.64	155.0063	0.22827
4773.619	155.003	0.22862
5025.313	155.003	0.22895
7533.822	154.9897	0.23134
10041.76	154.9963	0.23288
12551.84	154.9897	0.23402
15060.49	155.0063	0.23495
17570	154.9963	0.23574
20079.79	154.9897	0.23642
22587.44	154.9698	0.23702
25097.23	155.003	0.2376
27604.16	154.9964	0.23814
30113.96	154.9997	0.23863
32623.76	154.9997	0.2391
35134.28	155.003	0.23954
37644.07	155.0029	0.24001
40155.3	155.0029	0.2404
42665.09	155.0096	0.24081
45176.31	155.003	0.2412
47687.54	154.9996	0.24159
50198.76	154.9996	0.24196
52708.55	154.9996	0.24231
55218.35	154.9963	0.24268
57731.02	155.0063	0.24306
60239.38	155.0096	0.24338
62752.04	154.993	0.24374
65263.26	155.0063	0.2441
67771.63	155.0029	0.24442
70284.28	154.993	0.24477
1.14472	159.9929	-0.00737
102.4523	160.0034	0.06501
203.6168	159.9894	0.13155
303.7796	160.0034	0.1607
404.5149	159.9999	0.17601
505.2501	159.9999	0.18581
755.2281	159.9964	0.19966
1007.066	159.9929	0.20709
1257.903	159.9929	0.21164
1510.027	159.9929	0.21474
1760.147	159.9999	0.21694
2010.841	159.9999	0.21861
2263.251	159.9929	0.21993
2514.232	159.9964	0.22101
2766.212	159.9964	0.22191
3015.904	159.9999	0.22267
3266.741	159.9894	0.22332
3518.578	159.9964	0.22391
3770.13	159.9964	0.22442
4020.967	160.0034	0.22488
4271.517	159.9964	0.22531
4522.21	159.9964	0.22568
4773.905	159.9999	0.22606
5025.171	160.007	0.22638
7533.964	159.9999	0.22874
10042.05	159.9999	0.23027
12552.12	160.007	0.23142
15060.78	160.007	0.23233
17570	160.007	0.23311
20079.79	160.0034	0.23382
22586.72	159.9964	0.23444
25097.96	160.0105	0.23503
27604.16	159.9999	0.23557
30114.68	159.9929	0.23609
32624.47	159.9929	0.23658
35134.98	159.9965	0.23702
37644.78	159.9964	0.23747
40154.57	159.9999	0.2379
42666.52	159.9964	0.23833
45176.31	159.9999	0.23873
47687.54	160.0034	0.23911
50197.33	159.9999	0.23949
52708.55	159.9929	0.23986
55219.79	160.0034	0.24022
57731.02	159.9964	0.24058
60239.38	159.9999	0.24092
62750.61	160.0034	0.24127
65261.84	160.0034	0.24162
67773.05	160.0034	0.24196
70285.72	160.0034	0.24232
1.4309	164.9963	-0.00749
102.4523	164.9889	0.06527
203.7599	165.0001	0.13112
304.4951	164.9926	0.1598
404.3717	165.0038	0.17463
505.3931	164.9964	0.1842
754.6556	164.9926	0.19766
1006.923	165.0038	0.20489
1257.903	164.9926	0.20934
1510.027	165.0075	0.21233
1759.576	164.9964	0.21446
2010.841	165.0075	0.21609
2263.251	165.0038	0.21738
2513.802	165.0001	0.21841
2765.497	165.0001	0.21928
3015.904	165.0075	0.22005
3267.456	165.0001	0.2207
3518.436	165.0001	0.22126
3769.844	165.0001	0.22178
4021.539	164.9926	0.22224
4272.232	165.0038	0.22265
4522.496	165.0001	0.22304
4773.761	164.9964	0.22338
5024.598	164.9963	0.22372
7534.537	164.9889	0.22606
10041.47	165.0038	0.22757
12551.55	165.0001	0.22873
15061.06	164.9889	0.22966
17570	164.9963	0.23045
20079.08	165.0075	0.23116
22587.44	165.0075	0.23178
25097.23	165.0038	0.23236
27604.16	165.0001	0.2329
30113.96	165.0001	0.23343
32625.19	165.0075	0.23393
35134.98	165.0075	0.23439
37644.78	165.0038	0.23484
40154.57	165.0075	0.23528
42666.52	165.0038	0.2357
45174.88	165.0001	0.23613
47686.11	164.9964	0.2365
50198.76	164.9963	0.23691
52708.55	165.0038	0.23729
55219.79	164.9963	0.23769
57729.57	165.0001	0.23803
60239.38	165.0001	0.2384
62752.04	164.9926	0.23877
65261.84	164.9963	0.23913
67773.05	164.9889	0.23949
70284.28	164.9926	0.23982
1.14472	169.9915	-0.00836
102.3092	169.9955	0.06527
203.6168	169.9994	0.1304
303.7796	169.9837	0.1584
404.5149	170.0034	0.1732
505.3932	169.9915	0.18248
754.5126	169.9915	0.19561
1006.78	169.9955	0.20267
1257.76	169.9955	0.20696
1509.884	169.9915	0.20987
1759.718	169.9994	0.21194
2010.698	169.9915	0.21353
2262.965	169.9955	0.21478
2513.802	170.0034	0.21579
2765.21	169.9955	0.21665
3015.331	169.9955	0.21738
3267.027	170.0112	0.21802
3519.438	169.9994	0.21858
3769.272	169.9955	0.21908
4021.539	170.0034	0.21954
4271.66	169.9994	0.21993
4522.639	170.0034	0.22032
4773.046	169.9994	0.22065
5025.028	169.9994	0.22099
7534.395	170.0034	0.22333
10040.9	169.9994	0.22483
12551.26	170.0034	0.22597
15059.63	169.9955	0.22691
17568.56	169.9955	0.22772
20078.37	169.9994	0.22842
22586.01	169.9994	0.22908
25096.52	169.9994	0.22969
27603.45	169.9915	0.23024
30113.25	170.0034	0.23076
32624.48	169.9994	0.23128
35134.27	169.9915	0.23177
37644.07	169.9955	0.23221
40154.58	169.9955	0.23267
42666.52	169.9994	0.23309
45174.88	169.9915	0.2335
47686.11	169.9994	0.23393
50198.76	170.0073	0.23432
52709.99	170.0073	0.2347
55219.79	170.0034	0.23508
57731.02	170.0034	0.23547
60239.38	169.9955	0.23583
62750.61	169.9955	0.23617
65261.84	169.9994	0.23654
67773.05	170.0034	0.2369
70284.28	169.9994	0.23727
0.85854	174.9926	-0.00847
102.4523	174.9967	0.06568
203.7598	175.0009	0.12946
304.209	175.0051	0.15716
404.5149	175.0051	0.17167
505.5363	175.0051	0.18068
754.7988	175.0051	0.19354
1007.066	175.0051	0.20036
1258.331	174.9967	0.20453
1510.17	175.0009	0.20734
1760.291	175.0051	0.20935
2010.698	175.0051	0.21088
2263.538	174.9967	0.21212
2514.374	174.9967	0.2131
2766.212	175.0009	0.21395
3016.047	174.9884	0.21465
3267.17	174.9926	0.21528
3518.436	174.9967	0.21582
3770.13	175.0051	0.21632
4021.539	174.9926	0.21677
4271.375	174.9967	0.21717
4522.782	174.9967	0.21753
4773.475	174.9884	0.21787
5024.884	174.9967	0.2182
7534.108	175.0009	0.22051
10042.05	174.9884	0.22204
12552.12	174.9967	0.22318
15059.63	174.9926	0.22411
17570	174.9926	0.22493
20079.79	175.0051	0.22564
22587.44	174.9926	0.22632
25097.23	175.0009	0.22691
27604.16	175.0009	0.22748
30113.26	175.0051	0.22801
32624.47	175.0009	0.22853
35134.28	175.0009	0.22902
37644.78	174.9967	0.22951
40155.3	175.0092	0.22995
42666.52	175.0051	0.23039
45176.31	175.0009	0.23084
47686.11	175.0051	0.23125
50198.76	174.9967	0.23168
52707.13	175.0051	0.23207
55219.79	175.0009	0.23247
57729.57	174.9926	0.23286
60240.82	174.9967	0.23325
62750.61	174.9926	0.23362
65263.26	174.9967	0.23402
67773.05	174.9926	0.23439
70285.72	174.9884	0.23474
0.71545	179.9935	-0.00865
102.5954	179.9935	0.06506
203.1875	179.9935	0.12886
303.7796	179.9978	0.15575
404.5149	179.9935	0.17
505.2501	179.9978	0.17891
754.6556	179.9935	0.19137
1006.78	179.989	0.19799
1258.474	180.0022	0.20204
1509.455	180.0066	0.20474
1759.861	180.0022	0.20667
2011.127	179.9978	0.20818
2262.965	180.0022	0.20937
2514.231	179.9978	0.21034
2765.783	179.9935	0.21115
3015.904	180.0066	0.21184
3267.456	179.9891	0.21246
3519.151	180.0022	0.21299
3769.416	180.0022	0.21347
4021.682	180.0066	0.21392
4271.517	179.9978	0.2143
4522.353	179.9979	0.21467
4774.335	180.0022	0.21501
5025.314	180.0066	0.21534
7534.394	180.0022	0.21761
10041.76	180.0067	0.21915
12552.12	180.0022	0.2203
15060.49	179.9935	0.22124
17570	179.9935	0.22207
20079.79	179.9979	0.22281
22588.16	179.9935	0.22349
25097.96	179.9978	0.2241
27604.16	179.9978	0.2247
30114.68	179.9978	0.22524
32623.76	179.9935	0.22576
35135.7	179.9978	0.22627
37644.07	179.9979	0.22674
40154.57	180.011	0.22723
42666.52	180.0023	0.22767
45174.88	180.0022	0.2281
47687.54	180.0066	0.22855
50198.76	180.0066	0.22897
52708.55	179.9978	0.22937
55219.79	179.9935	0.22977
57731.02	180.0022	0.23019
60240.82	179.9935	0.23057
62752.04	180.0066	0.23095
65261.84	180.0022	0.23133
67773.05	179.9979	0.2317
70285.72	179.9978	0.23208
0.71545	184.9855	-0.00872
102.5954	184.9901	0.0658
203.0444	184.9995	0.12759
304.0658	185.0041	0.15444
404.8011	185.0087	0.16832
505.2501	184.9995	0.17697
754.5126	184.9995	0.18915
1006.351	184.9995	0.19555
1258.618	184.9995	0.19945
1509.884	184.9995	0.20207
1759.575	184.9995	0.20394
2010.126	185.0041	0.20537
2262.25	184.9995	0.20653
2514.231	185.0041	0.20748
2765.497	184.9995	0.20827
3016.047	184.9995	0.20896
3267.599	184.9948	0.20956
3518.865	184.9948	0.21009
3769.558	184.9995	0.21055
4021.539	184.9901	0.21098
4270.944	184.9995	0.21137
4522.067	184.9995	0.21174
4773.19	184.9995	0.21206
5025.028	185.0041	0.21238
7533.393	184.9948	0.21466
10041.76	184.9901	0.21618
12551.84	185.0041	0.21735
15060.49	184.9995	0.21832
17570	185.0087	0.21914
20079.08	185.0041	0.2199
22586.72	185.0041	0.22057
25097.96	185.0041	0.22122
27604.89	185.0087	0.22181
30113.96	185.0041	0.22238
32624.47	184.9995	0.2229
35134.98	184.9948	0.22343
37644.07	185.0087	0.22392
40154.57	185.0087	0.2244
42665.09	184.9948	0.22488
45176.31	185.0134	0.22534
47687.54	184.9995	0.22578
50198.76	185.0041	0.22622
52708.55	185.0087	0.22665
55219.79	184.9948	0.22706
57731.02	185.0041	0.22747
60239.38	184.9948	0.22788
62750.61	184.9901	0.22827
65261.84	184.9995	0.22867
67773.05	184.9855	0.22908
70284.28	184.9948	0.22944
1.00163	189.9894	-0.00898
102.3092	189.9943	0.06568
203.0444	189.9894	0.12633
303.6366	189.9894	0.15281
404.3718	189.9894	0.16647
504.6778	189.9991	0.17496
754.9419	189.9943	0.18681
1006.494	189.9894	0.193
1257.903	189.9943	0.19675
1509.454	190.004	0.19927
1759.718	189.9991	0.2011
2010.984	189.9943	0.20249
2262.965	189.9894	0.20361
2514.374	190.004	0.20453
2765.783	189.9943	0.20529
3015.904	189.9991	0.20597
3267.456	189.9943	0.20654
3519.008	190.004	0.20706
3769.844	189.9991	0.20753
4021.11	189.9991	0.20795
4271.375	190.004	0.20834
4522.64	190.004	0.2087
4773.761	190.0089	0.20902
5025.171	190.004	0.20933
7534.394	189.9943	0.2116
10042.05	190.004	0.21312
12551.84	189.9943	0.21429
15060.21	189.9943	0.21527
17570	190.004	0.21614
20078.36	189.9894	0.21688
22587.44	190.004	0.2176
25097.96	189.9943	0.21824
27604.16	190.004	0.21887
30113.26	189.9943	0.21943
32625.19	190.004	0.22
35135.7	189.9991	0.22053
37644.78	189.9943	0.22104
40155.3	190.004	0.22154
42666.52	189.9943	0.22203
45176.31	190.004	0.22248
47686.11	190.004	0.22293
50198.76	190.004	0.22338
52707.13	190.004	0.22382
55219.79	190.004	0.22424
57731.02	190.004	0.22467
60239.38	190.004	0.22508
62750.61	190.004	0.22547
65263.26	189.9991	0.22589
67771.63	189.9991	0.22626
70284.28	189.9943	0.22667
0.71545	194.9865	-0.00879
102.4523	194.9917	0.06591
203.6168	195.0019	0.1253
303.7796	194.9968	0.15091
404.8011	195.0019	0.16454
504.8209	195.0019	0.17286
754.9419	194.9917	0.1844
1007.209	195.0019	0.19034
1258.618	195.0019	0.19395
1510.027	195.007	0.19638
1759.718	194.9968	0.19813
2010.841	195.007	0.19948
2262.823	194.9968	0.20056
2514.374	195.007	0.20146
2765.783	195.0019	0.20221
3015.76	194.9968	0.20285
3267.456	194.9968	0.20343
3519.293	194.9968	0.20395
3770.13	195.0019	0.20439
4021.397	194.9917	0.20482
4271.231	194.9968	0.20519
4523.069	195.0019	0.20555
4773.761	194.9968	0.20587
5025.171	194.9968	0.20618
7534.251	194.9917	0.20844
10042.05	195.0019	0.20997
12552.12	195.0019	0.21115
15060.49	194.9968	0.21213
17570	195.0019	0.213
20078.36	195.0019	0.21378
22586.72	195.0019	0.2145
25097.23	194.9968	0.21516
27604.89	195.0019	0.2158
30113.96	195.007	0.21639
32624.47	195.0172	0.21695
35134.28	195.0019	0.21751
37644.78	195.007	0.21805
40154.57	194.9968	0.21855
42665.09	194.9968	0.21905
45174.88	195.007	0.21954
47686.11	195.007	0.22002
50198.76	194.9968	0.22049
52708.55	195.0019	0.22092
55219.79	195.0019	0.22137
57731.02	194.9968	0.2218
60240.82	194.9968	0.22223
62752.04	195.0019	0.22266
65261.84	194.9968	0.2231
67771.63	194.9968	0.2235
70284.28	194.9968	0.22389
0.71545	199.9828	-0.00874
102.8815	199.9934	0.06559
203.1875	200.0042	0.12312
304.0658	199.9934	0.14899
404.2287	199.9934	0.16231
505.2501	199.9988	0.17062
755.3712	199.9881	0.18183
1007.209	199.9881	0.18757
1258.618	199.9881	0.19103
1510.027	199.9934	0.19336
1759.289	199.9934	0.19504
2010.984	199.9934	0.19636
2262.822	199.9934	0.1974
2514.088	199.9988	0.19827
2766.069	199.9988	0.19902
3015.617	199.9934	0.19966
3267.026	199.9988	0.2002
3518.865	200.0042	0.20071
3770.559	200.0042	0.20116
4021.826	200.0096	0.20157
4271.66	200.0042	0.20194
4523.069	199.9988	0.2023
4773.904	199.9988	0.2026
5024.741	200.0096	0.2029
7533.822	199.9934	0.20516
10041.76	199.9934	0.2067
12551.27	199.9988	0.20789
15059.92	200.0042	0.2089
17569.29	200.0042	0.20979
20079.08	199.9881	0.2106
22587.45	199.9934	0.21133
25096.52	199.9934	0.21203
27604.17	199.9988	0.21268
30113.25	199.9934	0.2133
32623.76	199.9934	0.21386
35134.27	199.9934	0.21447
37644.07	199.9881	0.21501
40154.58	200.0042	0.21555
42665.09	199.9934	0.21604
45174.88	199.9988	0.21653
47687.54	200.0042	0.21702
50198.76	199.9988	0.21749
52708.55	200.0042	0.21797
55218.35	200.0042	0.21841
57729.57	200.0042	0.21888
60239.38	200.0042	0.2193
62752.04	199.9988	0.21975
65261.84	199.9988	0.22017
67773.05	199.9934	0.22059
70284.28	199.9934	0.221
1.00163	204.9757	-0.00831
102.8815	204.9926	0.06551
203.1875	204.9983	0.12106
304.0658	204.9926	0.14672
404.6579	204.9983	0.16007
505.5363	204.9926	0.16821
755.085	204.9982	0.1791
1006.494	204.9982	0.18464
1258.331	205.0038	0.18797
1509.884	204.9982	0.19023
1759.146	205.0038	0.19184
2010.841	204.9926	0.19311
2262.823	205.0038	0.19413
2514.517	204.9983	0.19496
2765.64	204.9982	0.19569
3015.904	204.9982	0.19632
3267.313	204.9926	0.19687
3519.008	204.9926	0.19735
3769.415	204.9926	0.19779
4020.967	205.0038	0.1982
4271.517	204.9926	0.19858
4522.782	205.0038	0.19891
4773.905	204.9982	0.19924
5025.171	204.9982	0.19953
7534.394	204.987	0.20178
10041.47	204.9982	0.20332
12551.55	204.9926	0.20454
15060.49	205.0038	0.20557
17569.29	204.9982	0.20649
20078.37	204.9982	0.20729
22587.45	205.0038	0.20806
25096.52	204.9982	0.20878
27603.45	204.9982	0.20944
30113.25	205.0095	0.21008
32623.76	205.0038	0.21069
35134.27	205.0038	0.21128
37644.07	204.9982	0.21187
40154.58	205.0038	0.21239
42666.52	204.9982	0.21291
45176.31	204.9982	0.21344
47688.97	205.0038	0.21388
50200.2	205.0095	0.21444
52709.99	205.0038	0.21493
55221.21	204.9983	0.2154
57732.45	204.9926	0.21587
60242.25	204.9982	0.21633
62753.46	204.9926	0.21679
65263.27	204.9926	0.21723
67773.06	204.9926	0.21768
70285.72	205.0038	0.21812
0.57236	209.9869	-0.00808
102.4523	209.9987	0.06467
203.0444	209.9987	0.11852
303.9228	210.0017	0.14396
403.9426	209.9987	0.1573
505.2501	209.9958	0.16549
755.085	209.9958	0.17616
1007.209	209.9869	0.18152
1258.331	209.9899	0.18473
1510.027	210.0017	0.18689
1759.718	209.9958	0.18846
2010.841	209.9958	0.18969
2262.823	209.9958	0.19067
2514.517	209.9869	0.1915
2765.353	209.9928	0.1922
3015.618	210.0046	0.19281
3267.599	209.9987	0.19335
3518.721	209.9958	0.19382
3769.415	209.9869	0.19425
4022.254	209.9958	0.19467
4271.375	210.0017	0.19501
4522.926	210.0017	0.19536
4773.619	209.9987	0.19568
5025.743	210.0016	0.19598
7533.965	209.9987	0.19821
10041.76	210.0016	0.19978
12551.83	210.0046	0.20101
15060.49	210.0017	0.20208
17569.29	210.0016	0.20301
20079.08	209.9987	0.20388
22586.72	209.9987	0.20465
25096.52	210.0046	0.20539
27603.45	210.0047	0.20607
30113.25	209.9958	0.20674
32624.48	209.9958	0.20739
35134.27	209.9958	0.20798
37644.07	209.9958	0.20858
40154.58	209.9929	0.20917
42666.52	209.9958	0.20971
45174.88	209.9987	0.21027
47687.54	209.9987	0.21079
50198.76	209.9987	0.21129
52708.55	209.9958	0.21179
55218.35	210.0046	0.21226
57731.02	209.9987	0.21276
60239.38	209.9987	0.21323
62752.04	210.0046	0.21369
65263.26	210.0046	0.21416
67771.63	210.0017	0.21461
70284.28	210.0046	0.21506
1.14472	214.9998	-0.00689
102.3092	214.9967	0.06357
203.4737	214.9937	0.11482
303.7796	214.9628	0.14058
404.9442	214.9937	0.1543
505.2501	214.9998	0.16247
754.9419	214.9875	0.17305
1006.923	214.9906	0.17826
1258.045	214.9998	0.18134
1510.027	215.006	0.18343
1759.718	215.0029	0.18494
2010.412	214.9998	0.18612
2262.537	215.0029	0.18708
2514.088	214.9998	0.18789
2765.353	215.0029	0.18857
3015.474	215.0029	0.18918
3267.742	214.9967	0.18972
3519.58	214.9998	0.1902
3769.415	214.9967	0.19062
4021.826	214.9967	0.19102
4271.087	214.9998	0.19138
4522.926	214.9967	0.19173
4773.761	214.9998	0.19203
5024.741	215.0029	0.19232
7534.538	214.9906	0.19457
10041.76	214.9967	0.19617
12552.12	214.9967	0.19744
15060.78	214.9967	0.19853
17569.29	214.9967	0.1995
20078.37	214.9967	0.20037
22586.72	214.9906	0.20118
25096.52	214.9906	0.20194
27603.45	214.9967	0.20266
30113.25	214.9937	0.20335
32623.76	215.006	0.20402
35134.98	215.0029	0.20465
37643.36	214.9967	0.20528
40153.15	214.9998	0.20586
42665.09	214.9967	0.20645
45174.88	215.009	0.20702
47687.54	215.0029	0.20757
50198.76	215.0029	0.20809
52708.55	214.9967	0.20864
55219.79	214.9998	0.20913
57731.02	214.9998	0.20966
60239.38	215.0029	0.21012
62750.61	214.9967	0.21061
65261.84	214.9967	0.21111
67771.63	215.0029	0.21159
70284.28	214.9967	0.21207
0.85854	219.9902	-0.00663
102.5954	219.9999	0.06185
203.6168	220.0031	0.11094
303.7796	220.0031	0.13673
404.3717	219.9999	0.15088
505.2501	219.9999	0.15927
754.6557	219.9966	0.16977
1006.78	219.9902	0.17487
1258.332	219.9967	0.17787
1509.741	219.9999	0.17988
1759.432	219.9967	0.18134
2010.269	220.0031	0.18249
2263.108	220.0031	0.18343
2514.231	219.9967	0.18421
2765.783	219.9967	0.18488
3015.331	219.9967	0.18545
3267.456	219.9999	0.186
3519.58	219.9966	0.18647
3769.987	219.9967	0.18689
4020.824	220.0031	0.18727
4271.517	219.9967	0.18763
4522.21	219.9902	0.18798
4773.19	219.9999	0.18827
5024.885	219.9902	0.18857
7533.964	219.9966	0.19083
10042.05	220.0063	0.19245
12551.84	219.9999	0.19375
15060.21	220.0063	0.19486
17569.29	219.9999	0.19587
20079.08	220.0063	0.19677
22586.72	220.0128	0.19761
25096.52	220.0031	0.19843
27603.45	219.9999	0.19917
30113.25	219.9999	0.19988
32623.76	220.0063	0.20057
35134.27	219.9999	0.20124
37643.36	220.0031	0.20187
40154.58	220.0063	0.20251
42666.52	220.0031	0.20312
45174.88	219.9999	0.20371
47687.54	219.9999	0.20428
50197.33	219.9967	0.20483
52709.99	219.9967	0.2054
55221.22	219.9966	0.20593
57729.57	219.9935	0.20645
60239.38	219.9966	0.20697
62750.61	219.987	0.20747
65261.84	219.9999	0.20798
67773.05	219.9999	0.20848
70284.28	219.9999	0.20898
1.14472	224.9857	-0.00566
102.3092	224.9958	0.05932
203.4737	224.9925	0.10563
303.6366	224.9958	0.13211
404.6579	224.9958	0.14688
504.6778	224.9958	0.15555
754.7988	224.9891	0.16612
1007.209	224.9824	0.17112
1258.331	224.9891	0.17403
1510.17	224.9891	0.176
1759.289	224.9925	0.17742
2010.841	224.9958	0.17852
2263.108	224.9958	0.17943
2514.66	224.9992	0.18019
2766.212	224.9925	0.18085
3015.76	225.006	0.18141
3267.456	224.9958	0.18194
3519.008	225.006	0.18239
3769.988	224.9992	0.18281
4021.253	225.0026	0.18319
4271.517	225.0026	0.18354
4522.782	224.9992	0.18388
4774.764	225.006	0.18418
5025.743	225.0026	0.18448
7534.108	224.9958	0.18675
10042.05	224.9992	0.1884
12551.84	224.9925	0.18974
15060.78	225.006	0.19089
17568.56	224.9992	0.19192
20079.08	224.9925	0.19288
22586.01	224.9958	0.19376
25096.52	224.9992	0.19459
27604.17	224.9925	0.19536
30113.25	224.9925	0.19614
32624.48	224.9992	0.19685
35134.27	224.9958	0.19753
37644.07	224.9958	0.1982
40154.58	224.9958	0.19887
42665.09	224.9958	0.19947
45174.88	224.9992	0.20009
47687.54	224.9992	0.20071
50198.76	224.9958	0.20128
52708.55	224.9992	0.20186
55219.79	225.0093	0.20242
57731.02	224.9992	0.20297
60240.82	225.0026	0.20348
62752.04	225.006	0.20402
65263.26	224.9992	0.20453
67773.05	224.9958	0.20505
70284.28	225.0026	0.20556
1.28781	229.9821	-0.00446
102.7385	229.9962	0.05598
203.903	229.9997	0.10042
304.209	229.9997	0.12698
404.8011	229.9891	0.1424
505.5363	229.9997	0.15131
754.9419	230.0032	0.16212
1006.923	229.9962	0.16709
1257.902	229.9997	0.16992
1509.884	230.0032	0.17183
1759.862	229.9997	0.17322
2010.841	229.9926	0.1743
2262.679	230.0102	0.17519
2513.945	229.9962	0.17593
2765.639	229.9997	0.17659
3015.761	229.9997	0.17715
3267.313	229.9997	0.17765
3518.865	230.0032	0.17811
3769.415	229.9926	0.17853
4021.683	230.0032	0.17891
4271.088	230.0032	0.17924
4523.354	229.9891	0.17959
4773.762	229.9962	0.17991
5025.171	229.9962	0.18022
7534.108	229.9856	0.18251
10042.05	229.9926	0.18418
12551.55	229.9996	0.18557
15060.78	229.9962	0.18678
17569.29	229.9997	0.18784
20079.08	229.9926	0.18885
22586.01	229.9997	0.18976
25096.52	230.0032	0.19064
27603.45	230.0067	0.19146
30113.25	230.0032	0.19224
32623.76	230.0032	0.19302
35134.27	230.0067	0.19375
37644.07	230.0032	0.19444
40153.86	230.0102	0.19513
42666.52	229.9962	0.1958
45176.31	230.0032	0.19645
47686.11	229.9997	0.19704
50198.76	229.9962	0.19767
52708.55	230.0032	0.19828
55219.79	230.0032	0.19887
57729.57	229.9962	0.1994
60239.38	229.9962	0.20002
62752.04	230.0067	0.20057
65263.26	229.9962	0.20114
67773.05	229.9996	0.20169
70284.28	229.9997	0.20223
0.85854	234.9832	-0.00341
102.3092	235.0053	0.05269
203.3306	235.0016	0.09449
303.9227	234.9943	0.12104
404.8011	234.998	0.13714
505.2501	235.0016	0.14672
755.371	234.9906	0.15781
1006.637	234.998	0.16275
1258.332	235.2188	0.16558
1509.454	234.9796	0.16745
1759.718	235.0126	0.16879
2010.698	235.0016	0.16986
2262.393	234.9942	0.17074
2514.517	235.0053	0.1715
2765.21	235.0016	0.17211
3015.331	234.998	0.17267
3267.313	234.9943	0.17319
3519.008	234.9906	0.17365
3769.844	234.9943	0.17407
4021.396	235.0016	0.17445
4271.803	234.998	0.1748
4523.212	234.998	0.17514
4774.335	234.998	0.17545
5024.455	234.998	0.17572
7533.964	234.9906	0.17806
10041.47	235.0053	0.17978
12551.55	235.0053	0.18121
15061.06	235.0089	0.18249
17570	235.0053	0.1836
20079.79	235.0053	0.18464
22587.44	235.0089	0.18562
25097.23	234.998	0.18656
27604.16	235.0053	0.18741
30113.96	234.998	0.18825
32624.47	235.0053	0.18906
35135.7	235.0016	0.18983
37644.07	234.998	0.19056
40155.3	234.9943	0.19129
42666.52	235.0016	0.19198
45176.31	234.9906	0.19268
47687.54	234.998	0.19335
50198.76	235.0016	0.19399
52708.55	235.0016	0.19462
55219.79	235.0016	0.19524
57729.57	234.9943	0.19586
60239.38	235.0016	0.19646
62750.61	234.998	0.19701
65261.84	235.0016	0.19761
67771.63	234.998	0.19818
70284.28	235.0053	0.19874
1.00163	239.9842	-0.00231
102.7385	239.9957	0.04967
203.6168	239.9995	0.08875
304.0658	239.9919	0.11478
404.3717	239.9995	0.13148
504.9639	239.9919	0.14163
755.371	239.9957	0.15317
1006.923	239.9919	0.15813
1258.331	239.9995	0.1609
1510.456	240.0072	0.16274
1759.718	239.9995	0.16407
2011.128	239.9957	0.16511
2262.965	239.9957	0.16596
2514.088	239.9957	0.16667
2765.926	239.9957	0.16731
3015.904	240.0071	0.16786
3266.597	240.0072	0.16834
3519.293	239.9995	0.1688
3769.988	240.0072	0.16921
4021.253	240.0034	0.16959
4273.234	240.011	0.16997
4522.496	240.0034	0.17028
4773.905	239.9957	0.1706
5025.743	239.9995	0.17089
7534.251	239.9995	0.17328
10041.47	240.0034	0.17506
12552.12	239.9995	0.17656
15060.49	240.0034	0.17787
17570	240.0071	0.17909
20079.08	240.0034	0.18018
22586.72	239.9919	0.18122
25097.24	239.9957	0.18218
27604.17	240.0225	0.18312
30113.25	239.9919	0.184
32624.48	240.0034	0.18485
35134.27	239.9995	0.18567
37643.36	239.9995	0.18647
40154.58	239.9919	0.18723
42665.09	240.0034	0.18797
45176.31	239.9957	0.1887
47687.54	239.9957	0.1894
50198.76	240.0034	0.19009
52708.55	239.9995	0.19073
55219.79	240.0034	0.1914
57731.02	240.0034	0.19203
60239.38	240.011	0.19267
62752.04	240.0034	0.19329
65261.84	240.0071	0.19391
67773.05	239.9995	0.19449
70285.72	239.9995	0.19509
0.71545	244.9904	-0.00129
102.4523	244.9984	0.04719
203.1875	244.9984	0.08324
303.6366	245.0024	0.10841
404.2287	245.0024	0.1254
505.107	245.0064	0.13612
755.2281	245.0024	0.14812
1007.209	245.0104	0.15315
1258.046	245.0064	0.1559
1510.456	245.0144	0.15771
1760.004	245.0024	0.159
2011.413	245.0064	0.16003
2262.536	244.9984	0.16088
2514.517	244.9984	0.16159
2765.783	245.0104	0.16221
3015.761	244.9984	0.16277
3267.742	244.9984	0.16324
3519.007	245.0104	0.1637
3769.701	245.0024	0.16412
4021.826	245.0104	0.16451
4271.517	245.0024	0.16487
4522.639	244.9905	0.16522
4773.619	245.0024	0.16553
5025.457	244.9944	0.16584
7534.108	244.9944	0.1683
10041.47	244.9984	0.17018
12551.84	244.9984	0.17174
15059.92	244.9984	0.17313
17568.56	245.0064	0.17439
20078.37	245.0064	0.17557
22587.45	245.0024	0.17668
25097.24	245.0024	0.17773
27603.45	245.0024	0.17869
30113.25	244.9984	0.17964
32623.76	245.0104	0.18054
35134.27	245.0024	0.18141
37644.07	245.0104	0.18225
40153.86	245.0064	0.18307
42666.52	245.0024	0.18387
45174.88	245.0024	0.18462
47687.54	245.0064	0.18538
50198.76	245.0024	0.1861
52707.13	245.0024	0.18681
55219.79	245.0024	0.18752
57729.57	244.9984	0.18819
60239.38	245.0104	0.1888
62750.61	245.0064	0.18952
65261.84	244.9984	0.19016
67773.05	244.9944	0.1908
70284.28	244.9984	0.19142
0.71545	249.9972	-5.19929E-4
102.1661	250.0055	0.04449
203.1875	250.0055	0.07801
303.7797	250.0097	0.10184
404.5149	250.0055	0.11894
504.6777	250.0096	0.13005
754.9419	250.0013	0.14269
1006.923	249.993	0.14775
1257.903	250.0055	0.15049
1509.454	250.0014	0.15228
1759.861	250.0055	0.15356
2010.841	250.0014	0.15457
2262.537	249.993	0.15541
2513.802	250.0014	0.15612
2765.783	250.0013	0.15674
3015.474	250.0013	0.15728
3266.883	249.9972	0.15778
3518.436	249.993	0.15824
3769.844	250.0014	0.15865
4021.539	250.0013	0.15904
4271.517	250.0014	0.15941
4522.21	250.0013	0.15976
4773.333	250.0055	0.16007
5025.171	249.9972	0.1604
7533.964	249.9972	0.16293
10042.05	250.0014	0.1649
12552.12	250.0138	0.16655
15060.49	250.0097	0.16805
17569.29	250.0096	0.1694
20079.08	250.0055	0.17066
22587.45	250.0013	0.17184
25097.24	249.9972	0.17294
27604.17	250.0014	0.17402
30113.25	250.0014	0.17503
32623.76	249.9972	0.17599
35133.56	250.0013	0.17693
37644.07	249.9972	0.17784
40154.58	250.0097	0.17871
42665.09	249.9972	0.17955
45174.88	249.993	0.18035
47687.54	250.0013	0.18118
50198.76	249.9972	0.18197
52707.13	250.0013	0.18269
55219.79	249.9972	0.18345
57729.57	250.0014	0.18418
60239.38	250.0014	0.18488
62750.61	249.9972	0.18556
65261.84	249.9972	0.18624
67771.63	249.9972	0.1869
70284.28	249.993	0.18756
0.85854	254.9825	7.31343E-5
102.4523	254.9955	0.04191
203.4737	254.9998	0.07299
304.0658	255.0085	0.09564
404.6579	254.9955	0.11233
505.2501	255.0085	0.12356
754.9419	255.0042	0.1367
1007.209	254.9955	0.14182
1258.331	255.0042	0.14454
1510.027	254.9998	0.14633
1760.005	255.0085	0.14758
2010.125	254.9998	0.14857
2262.965	255.0042	0.1494
2513.945	255.0085	0.1501
2765.783	255.0042	0.15074
3015.904	254.9998	0.15127
3267.599	255.0085	0.15178
3518.578	255.0042	0.15221
3769.701	255.0085	0.15265
4021.397	255.0172	0.15304
4271.517	255.0085	0.15342
4522.782	255.0085	0.15378
4773.905	255.0085	0.15411
5024.884	255.0042	0.15442
7533.822	255.0042	0.15707
10041.47	254.9912	0.15915
12551.84	255.0085	0.16095
15060.21	255.0042	0.16257
17568.56	254.9998	0.16403
20078.37	254.9955	0.16539
22586.72	254.9955	0.16667
25096.52	254.9998	0.16788
27603.45	254.9912	0.16901
30112.54	255.0085	0.1701
32623.04	254.9998	0.17115
35134.27	254.9955	0.17217
37644.78	254.9912	0.17316
40154.58	254.9998	0.17408
42665.09	254.9998	0.17498
45174.88	254.9955	0.17586
47687.54	254.9998	0.17671
50198.76	254.9998	0.17755
52708.55	255.0042	0.17836
55218.35	254.9912	0.17914
57731.02	255.0085	0.1799
60239.38	255.0042	0.18062
62750.61	254.9998	0.18138
65261.84	254.9998	0.18209
67773.05	254.9998	0.18282
70284.28	254.9998	0.18352
0.85854	259.9987	5.76904E-4
102.4523	260.0077	0.03925
203.6168	260.0077	0.06809
303.7796	260.0122	0.08935
404.3717	260.0122	0.10535
505.5363	260.0122	0.11671
754.5126	260.0032	0.13004
1006.923	260.0077	0.13522
1258.332	260.0032	0.13793
1509.597	260.0167	0.13967
1759.146	260.0122	0.14092
2010.269	260.0032	0.14191
2262.822	260.0122	0.14273
2514.804	260.0077	0.14343
2765.497	260.0122	0.14406
3016.047	260.0122	0.14461
3267.17	260.0077	0.14512
3518.292	260.0167	0.14558
3769.558	260.0122	0.14603
4021.539	259.9987	0.14644
4271.517	260.0032	0.14683
4522.067	259.9942	0.14719
4773.762	260.0077	0.14755
5025.028	260.0032	0.1479
7534.251	260.0032	0.15072
10041.76	259.9987	0.15297
12550.98	259.9987	0.15492
15059.92	259.9942	0.15666
17569.29	259.9942	0.15825
20079.08	259.9987	0.15974
22586.01	260.0032	0.16112
25097.24	259.9987	0.16245
27603.45	259.9987	0.16369
30113.25	260.0122	0.16488
32623.76	259.9987	0.16602
35134.27	260.0032	0.1671
37644.07	260.0032	0.16814
40154.58	260.0122	0.16916
42666.52	259.9987	0.17013
45174.88	260.0032	0.17108
47687.54	259.9987	0.17201
50198.76	260.0077	0.17291
52708.55	260.0032	0.17377
55221.22	259.9987	0.17463
57731.02	260.0032	0.17544
60240.82	260.0032	0.17624
62750.61	259.9942	0.17703
65263.26	259.9987	0.17781
67773.05	260.0032	0.17856
70284.28	259.9987	0.17932
1.28781	265.0031	0.00127
102.8816	265.0077	0.03707
203.6168	265.0124	0.06356
303.9227	265.0124	0.08326
405.0872	265.0171	0.09817
505.2501	265.0124	0.1091
754.6556	265.0031	0.12258
1006.494	265.0078	0.12776
1258.189	265.0031	0.13045
1509.884	265.0078	0.13215
1759.718	265.0078	0.13339
2010.984	265.0031	0.13438
2262.823	264.9984	0.13521
2513.945	264.9984	0.13591
2765.926	265.0031	0.13655
3015.474	265.0031	0.13712
3268.028	264.9937	0.13766
3518.578	265.0031	0.13815
3769.988	264.9937	0.1386
4021.539	264.9984	0.13904
4271.803	264.9984	0.13945
4522.64	265.0078	0.13985
4773.333	264.9984	0.14022
5025.313	265.0124	0.14058
7533.822	264.9984	0.14364
10041.47	264.9984	0.1461
12550.98	265.0031	0.14824
15060.49	265.0124	0.15019
17569.29	265.0078	0.15195
20078.37	265.0031	0.15358
22586.72	265.0078	0.15511
25097.24	265.0124	0.15656
27603.45	264.9984	0.15794
30112.54	265.0031	0.15923
32623.76	265.0031	0.16048
35133.56	264.9984	0.16168
37644.07	265.0031	0.16282
40154.58	264.9984	0.16392
42665.09	264.9984	0.16499
45174.88	265.0031	0.16603
47687.54	264.9984	0.16702
50198.76	264.9984	0.16798
52708.55	265.0031	0.16894
55219.79	264.989	0.16985
57731.02	265.0031	0.17074
60239.38	264.9937	0.17161
62752.04	264.9937	0.17246
65261.84	264.9937	0.17329
67771.63	264.9984	0.1741
70285.72	264.9984	0.17489
1.00163	269.9968	9.42077E-4
103.0246	270.0065	0.03441
203.6168	270.0114	0.05874
303.7796	270.0162	0.07685
404.8011	270.0016	0.09082
505.3931	270.0065	0.1011
754.9419	270.0016	0.11429
1006.923	270.0016	0.11938
1258.189	270.0016	0.12198
1509.454	270.0114	0.12367
1759.861	269.9919	0.12491
2010.698	270.0065	0.1259
2263.68	270.0016	0.12674
2514.232	270.0065	0.12748
2765.353	270.0016	0.12813
3015.045	270.0114	0.12872
3266.741	270.0065	0.12929
3519.151	269.9968	0.12981
3769.988	270.0114	0.1303
4021.11	270.0065	0.13075
4271.517	270.0114	0.1312
4522.64	270.0065	0.13162
4773.761	270.0114	0.13203
5025.028	270.0114	0.13243
7534.394	270.0065	0.13582
10041.76	270.0065	0.13861
12552.12	270.0114	0.14102
15060.78	269.9968	0.14318
17570	270.0016	0.14516
20079.79	270.0016	0.14701
22587.44	270.0016	0.14872
25097.23	269.9968	0.15032
27604.89	270.0016	0.15184
30113.96	270.0016	0.15328
32623.76	269.9968	0.15465
35134.98	269.9919	0.15597
37644.78	269.9919	0.15722
40155.3	269.9919	0.15844
42665.09	270.0016	0.1596
45176.31	269.9968	0.16072
47687.54	269.9968	0.1618
50198.76	270.0016	0.16285
52708.55	270.0016	0.16388
55219.79	269.9968	0.16485
57731.02	270.0114	0.16582
60239.38	269.9968	0.16675
62750.61	270.0016	0.16765
65263.26	270.0114	0.16854
67771.63	270.0065	0.1694
70284.28	270.0114	0.17026
0.71545	274.9988	9.46715E-4
102.4523	275.0292	0.0321
203.6167	275.014	0.05395
303.9228	275.0039	0.07036
404.2287	275.0039	0.0831
504.6778	275.0039	0.09238
755.085	275.009	0.10475
1006.923	275.009	0.10957
1257.903	275.014	0.11208
1510.027	275.014	0.11373
1759.432	275.019	0.11496
2010.412	275.009	0.11599
2262.823	275.009	0.11688
2513.945	275.009	0.11766
2765.211	275.0039	0.11836
3015.76	275.009	0.11902
3266.883	275.009	0.11962
3519.151	275.0039	0.12021
3769.844	275.009	0.12076
4021.397	275.009	0.12127
4271.517	275.0039	0.12178
4522.782	275.009	0.12225
4773.333	275.0039	0.1227
5025.171	275.0039	0.12316
7534.681	274.9988	0.12705
10042.05	274.9988	0.13025
12551.84	274.9988	0.13303
15060.49	274.9988	0.13551
17570	274.9988	0.13776
20079.08	274.9888	0.13984
22587.44	274.9938	0.14177
25097.96	274.9888	0.14357
27604.16	274.9988	0.14526
30113.96	275.0039	0.14687
32624.47	274.9938	0.14838
35134.98	275.0039	0.14982
37645.5	274.9938	0.15121
40155.3	275.0039	0.15253
42666.52	275.0039	0.1538
45176.31	275.009	0.15503
47687.54	275.0039	0.15622
50198.76	275.014	0.15737
52708.55	275.0039	0.15846
55219.79	275.0039	0.15954
57731.02	274.9988	0.16057
60239.38	274.9988	0.16158
62750.61	275.0039	0.16256
65261.84	275.009	0.16352
67771.63	274.9938	0.16445
70284.28	274.9938	0.16538
0.71545	279.9983	4.74429E-4
102.7385	280.0088	0.02924
203.3306	280.014	0.04881
304.0658	280.014	0.0633
404.3717	280.014	0.07427
504.8209	280.014	0.08245
755.085	280.0035	0.09331
1007.209	279.9983	0.09772
1258.331	280.014	0.1001
1510.027	280.0088	0.10175
1759.432	280.0088	0.10305
2010.841	280.0088	0.10415
2262.537	280.0035	0.10512
2514.374	280.014	0.10601
2765.497	279.9983	0.10681
3014.902	279.9983	0.10757
3267.456	280.0035	0.10828
3519.151	280.0035	0.10896
3769.558	280.0035	0.1096
4021.539	279.993	0.11024
4271.375	279.993	0.11082
4523.069	279.9983	0.11139
4773.905	279.9983	0.11194
5024.598	279.993	0.11247
7533.822	279.9878	0.11711
10042.33	279.9983	0.12091
12552.13	280.0035	0.12417
15060.77	280.0035	0.12704
17570	279.9983	0.12965
20079.08	280.014	0.13201
22587.44	279.993	0.1342
25097.96	279.9983	0.13626
27603.45	280.0035	0.13815
30113.26	280.0035	0.13996
32624.47	279.9983	0.14166
35134.98	280.0088	0.14327
37644.07	280.0035	0.14481
40155.3	280.0088	0.14628
42666.52	280.0035	0.14769
45174.88	279.9983	0.14904
47687.54	280.0035	0.15033
50197.33	279.9983	0.15158
52708.55	279.993	0.15278
55219.79	279.9983	0.15396
57731.02	280.0035	0.1551
60240.82	279.9983	0.15619
62750.61	279.9983	0.15727
65261.84	280.0088	0.1583
67771.63	279.993	0.15933
70284.28	279.993	0.1603
1.00163	285.0156	-4.92674E-4
102.4523	285.0102	0.02549
203.3306	285.0157	0.04242
303.9227	285.0156	0.05451
405.2303	285.0156	0.0636
504.964	284.9994	0.07004
754.7988	285.0103	0.07857
1006.923	285.0102	0.08239
1258.761	284.994	0.08473
1509.74	285.0102	0.0865
1760.005	285.0102	0.08799
2010.841	284.9994	0.08931
2263.108	285.0048	0.09051
2513.802	285.0103	0.0916
2765.783	284.9993	0.09262
3015.76	285.0048	0.09358
3267.456	285.0048	0.0945
3519.293	285.0048	0.09535
3769.701	285.0048	0.09616
4021.397	285.0048	0.09695
4271.375	284.9994	0.09769
4522.64	285.0048	0.09841
4774.047	284.9994	0.0991
5025.171	285.0048	0.09977
7534.108	285.0048	0.10556
10042.05	285.0157	0.11024
12551.84	285.0048	0.11419
15059.92	285.0102	0.11762
17570	285.0048	0.12068
20079.79	285.0048	0.12345
22587.44	285.0102	0.12598
25096.52	284.9994	0.12832
27604.89	284.994	0.13051
30113.96	285.0048	0.13254
32624.47	284.9885	0.13446
35134.28	285.0048	0.13627
37644.78	284.9993	0.138
40154.57	284.994	0.13964
42666.52	285.0048	0.1412
45176.31	284.9994	0.14271
47687.54	284.994	0.14415
50198.76	284.994	0.14552
52708.55	284.9885	0.14686
55218.35	284.9994	0.14814
57731.02	285.0048	0.14938
60239.38	284.994	0.15058
62752.04	284.9885	0.15175
65263.26	284.9994	0.15287
67773.05	284.9994	0.15397
70284.28	285.0048	0.15503
1.4309	290.0025	-0.00227
102.7385	290.0081	0.01996
203.6168	290.0138	0.03264
303.9227	290.0138	0.04118
404.6579	290.0081	0.04712
505.3931	290.0025	0.05111
754.7987	290.0137	0.05698
1007.066	290.0025	0.06077
1258.474	290.0025	0.06365
1509.741	289.9912	0.06607
1760.004	290.0025	0.06815
2011.127	290.0025	0.07003
2263.681	290.0138	0.07177
2514.803	290.0025	0.07333
2765.783	290.0081	0.07476
3015.332	290.0081	0.07613
3267.742	290.0081	0.07738
3519.151	290.0081	0.07858
3769.558	290.0138	0.0797
4021.826	290.0081	0.0808
4271.374	290.0081	0.08181
4522.925	290.0138	0.08281
4773.476	290.0081	0.08376
5025.457	290.0081	0.08468
7533.964	290.0025	0.09232
10041.76	290.0081	0.09823
12552.12	290.0025	0.10312
15059.92	290.042	0.10726
17569.29	290.0137	0.11089
20079.08	289.9969	0.11421
22586.01	290.0025	0.11717
25096.52	289.9969	0.11988
27604.17	290.0081	0.12239
30113.25	289.9969	0.12471
32623.76	290.0081	0.1269
35134.27	289.9969	0.12895
37644.78	290.0025	0.13089
40153.15	290.0025	0.13272
42666.52	290.0081	0.13447
45174.88	289.9969	0.13613
47687.54	289.9969	0.13772
50198.76	289.9969	0.13924
52708.55	290.0137	0.1407
55219.79	289.9912	0.14211
57731.02	290.0081	0.14346
60239.38	290.0081	0.14478
62752.04	290.0138	0.14604
65263.26	290.0081	0.14727
67771.63	290.0025	0.14847
70284.28	289.9969	0.14962
0.85854	295.009	-0.00106
102.7385	295.009	0.00483
203.3306	295.0031	0.00934
304.352	295.009	0.01331
404.8011	295.009	0.01676
504.8209	295.009	0.0199
754.6556	295.0148	0.02624
1007.209	295.009	0.03152
1258.189	295.0206	0.03589
1509.598	295.009	0.03966
1759.861	295.0206	0.04289
2010.841	295.0031	0.04578
2262.537	295.0148	0.0484
2514.374	295.0148	0.05077
2766.069	295.009	0.05295
3015.76	295.009	0.05493
3267.313	295.0031	0.05679
3519.008	295.009	0.05852
3769.988	295.0031	0.06017
4021.969	295.009	0.06172
4272.09	295.0031	0.06317
4522.926	295.0031	0.06455
4773.905	295.0148	0.06587
5025.171	295.0031	0.06714
7534.108	295.0031	0.07736
10041.76	294.9915	0.08491
12551.55	294.9915	0.09095
15060.78	295.0031	0.09601
17568.56	295.0323	0.10031
20077.64	295.0207	0.10418
22586.01	294.9915	0.10769
25097.24	294.9973	0.11083
27603.45	294.9973	0.11369
30113.25	295.009	0.11634
32623.76	294.9973	0.11881
35133.56	294.9915	0.12112
37644.07	294.9973	0.12329
40153.86	295.009	0.12532
42666.52	295.0031	0.12728
45176.31	295.009	0.12912
47687.54	295.009	0.13088
50198.76	295.0031	0.13255
52708.55	295.0031	0.13416
55219.79	295.0031	0.1357
57731.02	294.9973	0.13718
60239.38	294.9915	0.13861
62750.61	295.009	0.13999
65263.26	295.0031	0.14134
67773.05	294.9973	0.14264
70285.72	295.0031	0.14392
0.71545	300.0065	-2.386E-4
102.5954	300.0065	0.00126
203.7598	300.0186	0.0027
304.0658	300.0186	0.00414
405.5165	300.0126	0.00555
505.3932	300.0186	0.00696
755.085	300.0126	0.01038
1007.352	300.0126	0.01366
1258.045	300.0126	0.0168
1509.74	300.0126	0.01981
1760.005	300.0126	0.02264
2010.984	300.0126	0.02534
2263.68	300.0065	0.0279
2514.088	300.0065	0.03032
2766.642	300.0126	0.03262
3015.618	300.0065	0.03478
3267.456	300.0005	0.03684
3518.864	300.0005	0.03884
3769.988	300.0065	0.0407
4021.826	300.0005	0.0425
4271.66	300.0005	0.0442
4523.069	300.0005	0.04584
4773.619	300.0065	0.04741
5025.743	300.0126	0.04894
7533.964	300.0065	0.06129
10042.05	300.0065	0.07045
12551.27	300.0065	0.07771
15061.06	300.0005	0.08374
17570	300.0065	0.08889
20079.79	299.9884	0.09339
22587.44	300.0126	0.09739
25097.23	300.0065	0.101
27604.16	300.0065	0.10426
30114.68	300.0005	0.1073
32624.47	300.0005	0.11009
35134.98	299.9944	0.11268
37644.78	300.0005	0.11512
40155.3	299.9944	0.11741
42665.09	300.0065	0.11956
45176.31	300.0065	0.1216
47687.54	300.0065	0.12355
50198.76	300.0065	0.1254
52708.55	300.0126	0.12718
55219.79	300.0065	0.12888
57731.02	300.0005	0.13051
60239.38	300.0005	0.13206
62750.61	300.0005	0.13358
65261.84	300.0065	0.13504
67773.05	300.0126	0.13644
70284.28	300.0126	0.13781
1.00163	305.0043	-1.2407E-4
103.0246	305.0106	6.90659E-4
203.9029	305.0231	0.00149
303.9227	305.0231	0.00229
404.9441	305.0168	0.00308
505.5363	305.0168	0.00388
754.9419	305.0168	0.00583
1007.352	305.0168	0.00781
1258.474	305.0106	0.00973
1509.883	305.0043	0.01167
1759.861	305.0043	0.01351
2010.984	305.0043	0.01536
2262.679	305.0168	0.01719
2514.088	305.0106	0.01896
2766.355	305.0106	0.02072
3015.761	304.998	0.0224
3267.742	305.0043	0.02409
3519.294	304.9917	0.02573
3770.131	304.998	0.02731
4022.112	305.0043	0.02886
4271.803	305.0043	0.03037
4523.498	304.9917	0.03186
4774.191	305.0043	0.03329
5025.171	305.0043	0.03472
7533.964	304.9917	0.04713
10041.19	305.0043	0.05693
12551.83	305.0043	0.06499
15060.77	305.0168	0.07175
17569.29	304.998	0.07758
20079.08	305.0043	0.08266
22587.45	305.0106	0.0872
25097.24	305.0043	0.09125
27604.17	304.998	0.09495
30113.25	305.0106	0.09834
32623.76	304.9917	0.10146
35134.27	305.0043	0.10437
37644.07	304.998	0.10708
40154.58	304.998	0.10963
42666.52	304.998	0.11202
45176.31	304.9917	0.11428
47687.54	305.0043	0.11642
50198.76	304.998	0.11847
52708.55	305.0043	0.12043
55219.79	304.998	0.12227
57729.57	304.9917	0.12405
60239.38	305.0043	0.12576
62752.04	304.998	0.12742
65261.84	304.998	0.12901
67773.05	305.0043	0.13054
70284.28	304.9854	0.13202
1.14472	310.0043	-7.66326E-5
102.5954	310.0173	4.68064E-4
203.3306	310.0173	0.00101
304.209	310.0108	0.00155
404.8011	310.0108	0.00209
504.9639	310.0108	0.00262
754.9419	310.0043	0.00396
1006.923	310.0043	0.00529
1257.902	310.0043	0.00662
1510.027	309.9978	0.00794
1759.718	309.9978	0.00925
2010.698	310.0043	0.01054
2262.679	309.9978	0.01184
2513.802	310.0043	0.01312
2766.499	310.0043	0.01441
3015.761	310.0043	0.01566
3266.884	310.0108	0.01691
3518.721	310.0108	0.01815
3769.415	309.9978	0.01936
4021.539	310.0108	0.02058
4271.374	310.0108	0.02177
4522.926	310.0108	0.02295
4774.479	310.0043	0.02411
5024.885	310.0108	0.02525
7534.108	309.9978	0.03596
10041.76	310.0043	0.04528
12550.98	310.0043	0.0533
15059.92	310.0173	0.06028
17570	310.0173	0.06642
20078.37	310.0043	0.07185
22586.72	310.0043	0.07674
25096.52	310.0043	0.08117
27603.45	310.0043	0.08518
30113.25	309.9848	0.08889
32623.04	309.9978	0.09231
35133.56	309.9978	0.09548
37643.36	309.9913	0.09846
40153.86	309.9913	0.10123
42665.09	309.9978	0.10383
45174.88	309.9978	0.1063
47686.11	309.9913	0.10863
50198.76	310.0043	0.11085
52708.55	310.0043	0.11296
55219.79	310.0043	0.11497
57731.02	309.9978	0.11689
60239.38	309.9978	0.11873
62750.61	310.0043	0.12049
65261.84	310.0043	0.1222
67773.05	310.0108	0.12386
70284.28	310.0108	0.12545
0.85854	315.0099	-5.82389E-5
102.7385	315.0099	3.51239E-4
203.4737	315.0032	7.52193E-4
304.0658	315.0032	0.00116
404.8011	315.0032	0.00156
504.9639	315.0099	0.00196
754.6557	315.0032	0.00295
1006.923	314.9965	0.00395
1257.76	315.0032	0.00494
1510.313	315.0099	0.00593
1759.575	315.0099	0.00691
2010.841	315.0032	0.0079
2263.251	315.0032	0.00888
2514.088	315.0167	0.00985
2766.213	315.0167	0.01082
3015.189	315.0167	0.01178
3267.743	315.0099	0.01275
3519.008	315.0099	0.01371
3770.273	315.0099	0.01466
4021.969	315.0167	0.0156
4270.944	315.0099	0.01653
4522.783	315.0099	0.01747
4773.904	315.0167	0.0184
5025.028	314.9965	0.01932
7534.395	315.0032	0.02821
10042.05	315.0099	0.03636
12551.27	315.0032	0.04377
15060.49	315.0032	0.05046
17570	315.0032	0.05654
20079.79	314.9965	0.06205
22586.72	315.0032	0.06706
25096.52	314.9897	0.07166
27604.16	314.9965	0.07589
30113.26	314.9965	0.0798
32624.47	314.9897	0.08343
35134.98	314.9965	0.0868
37644.78	315.0032	0.08998
40154.57	314.9965	0.09295
42665.09	315.0032	0.09573
45174.88	314.9897	0.09838
47687.54	315.0099	0.10088
50197.33	314.9965	0.10325
52708.55	315.0099	0.10552
55219.79	314.9965	0.10768
57731.02	315.0099	0.10973
60239.38	315.0032	0.11171
62752.04	315.0032	0.11362
65263.26	315.0167	0.11545
67773.05	314.9965	0.11721
70284.28	315.0032	0.11892
1.00163	319.9908	-4.37216E-5
102.7385	319.9977	2.80297E-4
203.4737	320.0117	5.99686E-4
304.352	320.0186	9.17712E-4
404.5149	320.0117	0.00123
505.3932	320.0186	0.00155
754.5126	320.0186	0.00234
1006.637	320.0186	0.00312
1258.188	320.0117	0.00391
1509.741	320.0186	0.00469
1759.862	320.0186	0.00547
2011.127	320.0117	0.00625
2262.822	320.0047	0.00703
2514.374	320.0047	0.00781
2765.639	320.0186	0.00858
3015.331	319.9977	0.00935
3267.17	320.0047	0.01012
3518.578	320.0117	0.01089
3769.844	320.0047	0.01166
4021.969	319.9908	0.01242
4271.374	319.9908	0.01316
4522.497	320.0047	0.01393
4774.335	319.9977	0.01469
5025.6	320.0047	0.01544
7533.822	319.9908	0.02279
10041.76	319.9977	0.02977
12551.84	319.9977	0.03635
15060.21	319.9977	0.04251
17570	320.0047	0.04822
20079.79	319.9839	0.05354
22586.72	320.0047	0.05846
25097.23	319.9769	0.06306
27604.16	320.0117	0.06732
30113.96	319.9977	0.07131
32625.19	319.9977	0.07504
35134.98	319.9977	0.07853
37644.78	320.0117	0.08183
40155.3	320.0047	0.08494
42666.52	320.0047	0.08788
45176.31	320.0047	0.09065
47687.54	320.0047	0.0933
50198.76	320.0117	0.0958
52708.55	319.9977	0.09819
55218.35	319.9977	0.10048
57731.02	319.9977	0.10267
60240.82	320.0047	0.10478
62752.04	320.0047	0.10679
65263.26	319.9977	0.10874
67773.05	320.0117	0.11062
70282.85	319.9908	0.11241
1.00163	325.0067	-3.39833E-5
102.7385	325.0138	2.32416E-4
203.7598	325.0138	4.95174E-4
303.6366	325.0138	7.56723E-4
404.9442	325.0138	0.00102
505.5363	325.0138	0.00128
754.6556	325.0067	0.00192
1007.066	325.021	0.00257
1257.903	325.021	0.00322
1509.454	325.0138	0.00386
1759.576	325.0138	0.0045
2010.841	325.0067	0.00514
2262.965	325.0067	0.00579
2514.374	325.0067	0.00643
2765.783	325.0067	0.00707
3015.332	325.0067	0.0077
3267.742	324.9995	0.00834
3519.008	325.0138	0.00898
3769.701	324.9995	0.00961
4020.967	325.0067	0.01025
4271.231	324.9995	0.01088
4522.782	324.9995	0.01151
4773.905	325.0067	0.01214
5025.028	324.9922	0.01277
7533.393	324.985	0.01896
10041.18	324.9995	0.02497
12552.12	325.0067	0.03074
15061.06	325.0067	0.03624
17569.29	324.9995	0.04147
20079.08	324.9995	0.04642
22586.72	324.9994	0.0511
25096.52	324.9995	0.05554
27602.74	324.9995	0.05969
30113.25	325.0138	0.06363
32623.76	324.9994	0.06736
35134.27	324.9995	0.07089
37644.07	325.0067	0.07423
40153.86	324.9994	0.07739
42666.52	324.9922	0.08041
45174.88	324.9995	0.08328
47686.11	325.0067	0.08601
50198.76	325.0067	0.08862
52708.55	325.0067	0.0911
55219.79	324.9922	0.0935
57731.02	325.0067	0.09579
60239.38	324.9995	0.09798
62752.04	325.0067	0.1001
65261.84	324.9922	0.10214
67771.63	325.0067	0.10411
70284.28	324.9922	0.10601
0.85854	330.0073	-2.78465E-5
102.4523	330.0073	1.98094E-4
203.6168	330.0221	4.21274E-4
303.9227	330.0221	6.42871E-4
404.9442	330.0147	8.63615E-4
504.9639	330.0221	0.00108
755.085	330.0147	0.00163
1006.637	330.0073	0.00218
1258.189	330.0147	0.00273
1510.027	330.0073	0.00328
1759.432	330.0147	0.00382
2010.698	330.0147	0.00436
2262.965	330.0147	0.00491
2514.232	330.0146	0.00545
2765.497	329.9998	0.00599
3016.19	330.0073	0.00653
3266.883	329.9998	0.00707
3518.578	330.0147	0.00761
3769.844	329.9998	0.00815
4021.11	329.9923	0.00869
4271.087	330.0147	0.00923
4522.64	329.9923	0.00976
4774.622	329.9923	0.0103
5025.313	329.9998	0.01084
7533.822	329.9998	0.01614
10041.76	330.0073	0.02134
12552.12	330.0147	0.02639
15060.49	329.9998	0.03129
17570	330.0147	0.03602
20079.79	329.9998	0.04058
22587.44	330.0073	0.04493
25097.23	329.9998	0.0491
27604.89	330.0073	0.05308
30113.26	330.0073	0.05688
32624.47	329.9923	0.06052
35134.98	329.9998	0.06399
37644.78	329.9998	0.0673
40154.57	329.9923	0.07047
42665.09	330.0073	0.07349
45176.31	330.0073	0.07637
47687.54	329.9998	0.07915
50198.76	329.9923	0.08182
52708.55	329.9998	0.08437
55218.35	329.9998	0.08682
57729.57	329.9998	0.08917
60239.38	329.9923	0.09143
62752.04	330.0147	0.09364
65261.84	329.9849	0.09575
67773.05	329.9923	0.09778
70284.28	329.9998	0.09976